File: sl1/usgs/library06/DESCRIPT/new_xrd_results_to_be_added/Rhonda_Driscoll_xrd_runs/GDS135---Suaconite.txt
/////////////////////////////////////////////////////////////////////////////////
/// Profile Data Ascii Dump (XRD)                                             ///
/////////////////////////////////////////////////////////////////////////////////

  Group     : Swayze
  Data      : GDS135
  File Name : GDS135.RAW

# Profile Datafile
          comment             = Sauconite
          date & time         = 08-03-14 07:26:52

# Measurement Condition
    X-ray tube
          target              = Cu
          voltage             = 40.0 (kV)
          current             = 30.0 (mA)
    Slits
          divergence slit     = 2.00000 (deg)
          scatter slit        = 2.00000 (deg)
          receiving slit      = 0.15000 (mm)
    Scanning
          drive axis          = Theta-2Theta
          scan range          =    4.000 -   65.000
          scan mode           = Continuous Scan
          scan speed          =   2.0000 (deg/min)
          sampling pitch      =   0.0200 (deg)
          preset time         =   0.60 (sec)

# Data      [ Total No. = 3051 ]
  <2Theta>   <   I   >
     4.0000       232
     4.2200       256
     4.4400       274
     4.6600       292
     4.8800       346
     5.1000       414
     5.3200       586
     5.5400       722
     5.7600       970
     5.9800      1064
     6.2000      1174
     6.4200      1044
     6.6400       788
     6.8600       556
     7.0800       432
     7.3000       332
     7.5200       268
     7.7400       200
     7.9600       188
     8.1800       182
     8.4000       172
     8.6200       166
     8.8400       148
     9.0600       158
     9.2800       144
     9.5000       124
     9.7200       128
     9.9400       120
    10.1600       118
    10.3800       124
    10.6000       102
    10.8200       110
    11.0400       110
    11.2600       104
    11.4800       110
    11.7000       138
    11.9200       152
    12.1400       132
    12.3600       148
    12.5800       160
    12.8000       130
    13.0200       134
    13.2400       112
    13.4600        90
    13.6800       118
    13.9000        92
    14.1200        70
    14.3400        98
    14.5600        72
    14.7800        78
    15.0000        72
    15.2200        82
    15.4400        68
    15.6600        66
    15.8800        60
    16.1000        64
    16.3200        78
    16.5400        60
    16.7600        68
    16.9800        74
    17.2000        66
    17.4200        74
    17.6400        68
    17.8600        72
    18.0800        62
    18.3000        70
    18.5200        86
    18.7400        78
    18.9600       144
    19.1800       172
    19.4000       152
    19.6200       154
    19.8400       116
    20.0600       130
    20.2800       110
    20.5000       114
    20.7200       110
    20.9400       108
    21.1600       130
    21.3800       114
    21.6000       104
    21.8200       132
    22.0400       114
    22.2600       102
    22.4800       138
    22.7000       106
    22.9200       110
    23.1400       110
    23.3600       116
    23.5800       126
    23.8000       134
    24.0200       136
    24.2400       156
    24.4600       134
    24.6800       130
    24.9000       136
    25.1200       138
    25.3400       138
    25.5600       130
    25.7800       120
    26.0000       130
    26.2200       152
    26.4400       136
    26.6600       120
    26.8800       142
    27.1000       138
    27.3200       158
    27.5400       144
    27.7600       140
    27.9800       142
    28.2000       130
    28.4200       154
    28.6400       126
    28.8600       132
    29.0800       130
    29.3000       138
    29.5200       154
    29.7400       104
    29.9600       110
    30.1800       116
    30.4000       118
    30.6200       120
    30.8400       122
    31.0600       120
    31.2800       120
    31.5000       100
    31.7200        96
    31.9400        98
    32.1600       110
    32.3800        90
    32.6000       100
    32.8200       112
    33.0400       100
    33.2600       136
    33.4800       286
    33.7000       316
    33.9200       262
    34.1400       278
    34.3600       278
    34.5800       266
    34.8000       272
    35.0200       244
    35.2400       264
    35.4600       250
    35.6800       246
    35.9000       266
    36.1200       238
    36.3400       240
    36.5600       224
    36.7800       208
    37.0000       224
    37.2200       192
    37.4400       212
    37.6600       200
    37.8800       178
    38.1000       198
    38.3200       188
    38.5400       166
    38.7600       170
    38.9800       184
    39.2000       156
    39.4200       168
    39.6400       150
    39.8600       158
    40.0800       154
    40.3000       152
    40.5200       156
    40.7400       138
    40.9600       124
    41.1800       128
    41.4000       140
    41.6200       144
    41.8400       138
    42.0600       138
    42.2800       128
    42.5000       116
    42.7200       118
    42.9400       114
    43.1600       116
    43.3800       106
    43.6000       136
    43.8200       114
    44.0400        98
    44.2600       122
    44.4800       114
    44.7000       110
    44.9200       100
    45.1400        94
    45.3600        94
    45.5800        88
    45.8000        84
    46.0200       112
    46.2400        86
    46.4600        90
    46.6800        82
    46.9000        92
    47.1200        92
    47.3400        76
    47.5600        76
    47.7800        86
    48.0000       100
    48.2200        92
    48.4400       100
    48.6600        90
    48.8800        90
    49.1000        84
    49.3200        90
    49.5400        90
    49.7600        82
    49.9800        72
    50.2000        76
    50.4200        90
    50.6400        86
    50.8600        84
    51.0800        90
    51.3000        90
    51.5200        90
    51.7400        84
    51.9600        82
    52.1800       110
    52.4000       106
    52.6200       112
    52.8400       104
    53.0600       100
    53.2800       102
    53.5000        90
    53.7200       118
    53.9400       102
    54.1600        94
    54.3800        98
    54.6000       110
    54.8200       100
    55.0400        88
    55.2600       100
    55.4800       106
    55.7000        94
    55.9200        94
    56.1400       106
    56.3600        98
    56.5800       100
    56.8000        94
    57.0200       108
    57.2400        96
    57.4600        88
    57.6800       100
    57.9000        70
    58.1200        82
    58.3400        84
    58.5600        90
    58.7800       102
    59.0000        96
    59.2200       112
    59.4400       106
    59.6600       246
    59.8800       402
    60.1000       362
    60.3200       212
    60.5400       176
    60.7600       152
    60.9800       152
    61.2000       136
    61.4200       136
    61.6400       106
    61.8600        94
    62.0800       102
    62.3000        92
    62.5200       100
    62.7400        94
    62.9600        86
    63.1800        72
    63.4000        98
    63.6200        88
    63.8400        68
    64.0600        94
    64.2800       114
    64.5000        88
    64.7200        84
    64.9400        82
    65.0000        86