File: sl1/usgs/library06/DESCRIPT/new_xrd_results_to_be_added/Rhonda_Driscoll_xrd_runs/GDS158---Clinochlore--.txt
/////////////////////////////////////////////////////////////////////////////////
/// Profile Data Ascii Dump (XRD)                                             ///
/////////////////////////////////////////////////////////////////////////////////

  Group     : Swayze
  Data      : GDS158
  File Name : GDS158.RAW

# Profile Datafile
          comment             = Clinochlore
          date & time         = 08-04-14 08:24:53

# Measurement Condition
    X-ray tube
          target              = Cu
          voltage             = 40.0 (kV)
          current             = 30.0 (mA)
    Slits
          divergence slit     = 2.00000 (deg)
          scatter slit        = 2.00000 (deg)
          receiving slit      = 0.15000 (mm)
    Scanning
          drive axis          = Theta-2Theta
          scan range          =    4.000 -   65.000
          scan mode           = Continuous Scan
          scan speed          =   2.0000 (deg/min)
          sampling pitch      =   0.0200 (deg)
          preset time         =   0.60 (sec)

# Data      [ Total No. = 3051 ]
  <2Theta>   <   I   >
     4.0000       188
     4.2200       204
     4.4400       172
     4.6600       164
     4.8800       168
     5.1000       178
     5.3200       174
     5.5400       208
     5.7600       254
     5.9800       508
     6.2000      1940
     6.4200       188
     6.6400       148
     6.8600       124
     7.0800       104
     7.3000       126
     7.5200       140
     7.7400       132
     7.9600       126
     8.1800        92
     8.4000        92
     8.6200       126
     8.8400       132
     9.0600        98
     9.2800       112
     9.5000       100
     9.7200       116
     9.9400       128
    10.1600        92
    10.3800        86
    10.6000       100
    10.8200       118
    11.0400        96
    11.2600       108
    11.4800       110
    11.7000       104
    11.9200       268
    12.1400       744
    12.3600      4992
    12.5800       388
    12.8000       112
    13.0200        72
    13.2400        78
    13.4600        76
    13.6800        76
    13.9000        66
    14.1200        66
    14.3400        70
    14.5600        78
    14.7800        60
    15.0000        76
    15.2200        58
    15.4400        60
    15.6600        70
    15.8800        58
    16.1000        70
    16.3200        70
    16.5400        60
    16.7600        64
    16.9800        68
    17.2000        76
    17.4200        58
    17.6400        72
    17.8600        84
    18.0800        80
    18.3000       206
    18.5200      1074
    18.7400      3868
    18.9600       170
    19.1800        94
    19.4000        98
    19.6200        84
    19.8400        62
    20.0600        80
    20.2800        58
    20.5000        68
    20.7200        52
    20.9400        54
    21.1600        50
    21.3800        66
    21.6000        50
    21.8200        66
    22.0400        56
    22.2600        58
    22.4800        80
    22.7000        52
    22.9200        62
    23.1400        62
    23.3600        48
    23.5800        62
    23.8000        68
    24.0200        74
    24.2400        94
    24.4600       134
    24.6800       398
    24.9000      3194
    25.1200      5032
    25.3400       228
    25.5600        96
    25.7800        76
    26.0000        56
    26.2200        52
    26.4400        58
    26.6600        64
    26.8800        60
    27.1000        56
    27.3200        86
    27.5400        50
    27.7600        50
    27.9800        52
    28.2000        52
    28.4200        58
    28.6400        52
    28.8600        44
    29.0800        42
    29.3000        48
    29.5200        36
    29.7400        40
    29.9600        46
    30.1800        48
    30.4000        52
    30.6200        58
    30.8400        56
    31.0600       112
    31.2800       464
    31.5000      2162
    31.7200       150
    31.9400        66
    32.1600        42
    32.3800        44
    32.6000        36
    32.8200        30
    33.0400        44
    33.2600        38
    33.4800        60
    33.7000        46
    33.9200        44
    34.1400        26
    34.3600        62
    34.5800        88
    34.8000        52
    35.0200        90
    35.2400        92
    35.4600        44
    35.6800        38
    35.9000        46
    36.1200        42
    36.3400        46
    36.5600        90
    36.7800        74
    37.0000        36
    37.2200        40
    37.4400        58
    37.6600        92
    37.8800        66
    38.1000        62
    38.3200        48
    38.5400        32
    38.7600        38
    38.9800        34
    39.2000        36
    39.4200        46
    39.6400        74
    39.8600        68
    40.0800        26
    40.3000        46
    40.5200        30
    40.7400        38
    40.9600        34
    41.1800        30
    41.4000        48
    41.6200        34
    41.8400        34
    42.0600        44
    42.2800        22
    42.5000        22
    42.7200        36
    42.9400        24
    43.1600        50
    43.3800        44
    43.6000        60
    43.8200        36
    44.0400        44
    44.2600        52
    44.4800       118
    44.7000       504
    44.9200       140
    45.1400       204
    45.3600        94
    45.5800        42
    45.8000        32
    46.0200        36
    46.2400        42
    46.4600        36
    46.6800        30
    46.9000        38
    47.1200        34
    47.3400        42
    47.5600        36
    47.7800        44
    48.0000        64
    48.2200       104
    48.4400        62
    48.6600        40
    48.8800        38
    49.1000        36
    49.3200        44
    49.5400        30
    49.7600        66
    49.9800        72
    50.2000        42
    50.4200        28
    50.6400        32
    50.8600        30
    51.0800        32
    51.3000        36
    51.5200        32
    51.7400        38
    51.9600        26
    52.1800        38
    52.4000        28
    52.6200        20
    52.8400        32
    53.0600        36
    53.2800        52
    53.5000        48
    53.7200        34
    53.9400        38
    54.1600        44
    54.3800        26
    54.6000        18
    54.8200        38
    55.0400        66
    55.2600        72
    55.4800        26
    55.7000        36
    55.9200        36
    56.1400        56
    56.3600        34
    56.5800        42
    56.8000        28
    57.0200        34
    57.2400        40
    57.4600        20
    57.6800        42
    57.9000        28
    58.1200        50
    58.3400        48
    58.5600       154
    58.7800       252
    59.0000       180
    59.2200        98
    59.4400        52
    59.6600        44
    59.8800        84
    60.1000        68
    60.3200        40
    60.5400        48
    60.7600        52
    60.9800        34
    61.2000        48
    61.4200        32
    61.6400        48
    61.8600        30
    62.0800        44
    62.3000        28
    62.5200        26
    62.7400        32
    62.9600        34
    63.1800        30
    63.4000        46
    63.6200        28
    63.8400        32
    64.0600        34
    64.2800        46
    64.5000        28
    64.7200        42
    64.9400        52
    65.0000        38