File: sl1/usgs/library06/DESCRIPT/new_xrd_results_to_be_added/Rhonda_Driscoll_xrd_runs/GDS113-Muscovite.txt
/////////////////////////////////////////////////////////////////////////////////
/// Profile Data Ascii Dump (XRD)                                             ///
/////////////////////////////////////////////////////////////////////////////////

  Group     : Swayze
  Data      : GDS113
  File Name : GDS113.RAW

# Profile Datafile
          comment             = Muscovite
          date & time         = 08-04-09 07:20:19

# Measurement Condition
    X-ray tube
          target              = Cu
          voltage             = 40.0 (kV)
          current             = 30.0 (mA)
    Slits
          divergence slit     = 2.00000 (deg)
          scatter slit        = 2.00000 (deg)
          receiving slit      = 0.15000 (mm)
    Scanning
          drive axis          = Theta-2Theta
          scan range          =    4.000 -   65.000
          scan mode           = Continuous Scan
          scan speed          =   2.0000 (deg/min)
          sampling pitch      =   0.0200 (deg)
          preset time         =   0.60 (sec)

# Data      [ Total No. = 3051 ]
  <2Theta>   <   I   >
     4.0000       200
     4.2200       196
     4.4400       190
     4.6600       160
     4.8800       162
     5.1000       162
     5.3200       168
     5.5400       160
     5.7600       180
     5.9800       142
     6.2000       142
     6.4200       148
     6.6400       136
     6.8600       128
     7.0800       122
     7.3000       108
     7.5200       124
     7.7400       124
     7.9600       116
     8.1800       158
     8.4000       310
     8.6200       952
     8.8400      6936
     9.0600       232
     9.2800       136
     9.5000       118
     9.7200        94
     9.9400       118
    10.1600        90
    10.3800        98
    10.6000        86
    10.8200        96
    11.0400        74
    11.2600        94
    11.4800        76
    11.7000        88
    11.9200        94
    12.1400        90
    12.3600        64
    12.5800        72
    12.8000        94
    13.0200        98
    13.2400        78
    13.4600        76
    13.6800        54
    13.9000        74
    14.1200        54
    14.3400        96
    14.5600        78
    14.7800        78
    15.0000        70
    15.2200        62
    15.4400        60
    15.6600        50
    15.8800        66
    16.1000        58
    16.3200        64
    16.5400        56
    16.7600        66
    16.9800        54
    17.2000       106
    17.4200       286
    17.6400      3206
    17.8600       246
    18.0800        60
    18.3000        94
    18.5200        52
    18.7400        54
    18.9600        54
    19.1800        56
    19.4000        60
    19.6200        94
    19.8400       148
    20.0600        78
    20.2800        60
    20.5000        58
    20.7200        70
    20.9400        58
    21.1600        54
    21.3800        64
    21.6000        64
    21.8200        52
    22.0400        52
    22.2600        56
    22.4800        48
    22.7000        92
    22.9200        96
    23.1400        48
    23.3600        54
    23.5800       106
    23.8000       120
    24.0200        88
    24.2400        40
    24.4600        52
    24.6800        56
    24.9000        74
    25.1200        84
    25.3400       226
    25.5600       186
    25.7800       106
    26.0000       116
    26.2200       198
    26.4400       882
    26.6600     12108
    26.8800       944
    27.1000       150
    27.3200        98
    27.5400       120
    27.7600       298
    27.9800        80
    28.2000        68
    28.4200        84
    28.6400        46
    28.8600        42
    29.0800        52
    29.3000        44
    29.5200        86
    29.7400       356
    29.9600        94
    30.1800        56
    30.4000        28
    30.6200        48
    30.8400        66
    31.0600       216
    31.2800       148
    31.5000        46
    31.7200        70
    31.9400       270
    32.1600        68
    32.3800        40
    32.6000        48
    32.8200        32
    33.0400        34
    33.2600        46
    33.4800        40
    33.7000        40
    33.9200        30
    34.1400        48
    34.3600        90
    34.5800       134
    34.8000       226
    35.0200       198
    35.2400        50
    35.4600        74
    35.6800       222
    35.9000      1554
    36.1200       106
    36.3400        92
    36.5600        56
    36.7800        54
    37.0000        46
    37.2200        58
    37.4400        66
    37.6600       108
    37.8800        72
    38.1000        42
    38.3200        26
    38.5400        28
    38.7600        32
    38.9800        26
    39.2000        28
    39.4200        32
    39.6400        38
    39.8600        32
    40.0800        50
    40.3000        38
    40.5200        52
    40.7400        70
    40.9600        60
    41.1800        50
    41.4000        44
    41.6200        54
    41.8400        72
    42.0600       102
    42.2800       108
    42.5000        94
    42.7200        50
    42.9400        34
    43.1600        48
    43.3800        62
    43.6000        52
    43.8200        68
    44.0400        66
    44.2600        80
    44.4800        72
    44.7000        98
    44.9200       128
    45.1400       868
    45.3600      5984
    45.5800       404
    45.8000       124
    46.0200       106
    46.2400        62
    46.4600        70
    46.6800        44
    46.9000        32
    47.1200        36
    47.3400        36
    47.5600        40
    47.7800        28
    48.0000        48
    48.2200        46
    48.4400        38
    48.6600        38
    48.8800        30
    49.1000        32
    49.3200        34
    49.5400        36
    49.7600        40
    49.9800        38
    50.2000        30
    50.4200        24
    50.6400        32
    50.8600        26
    51.0800        30
    51.3000        36
    51.5200        28
    51.7400        24
    51.9600        26
    52.1800        36
    52.4000        50
    52.6200        66
    52.8400        90
    53.0600        42
    53.2800        34
    53.5000        44
    53.7200        40
    53.9400        38
    54.1600        48
    54.3800        30
    54.6000        38
    54.8200        58
    55.0400       144
    55.2600       122
    55.4800        94
    55.7000       194
    55.9200       104
    56.1400        58
    56.3600        54
    56.5800        42
    56.8000        36
    57.0200        42
    57.2400        42
    57.4600        70
    57.6800        40
    57.9000        36
    58.1200        28
    58.3400        32
    58.5600        30
    58.7800        36
    59.0000        46
    59.2200        62
    59.4400        44
    59.6600        44
    59.8800        38
    60.1000        42
    60.3200        66
    60.5400       122
    60.7600       118
    60.9800        84
    61.2000        80
    61.4200        78
    61.6400        92
    61.8600        98
    62.0800        64
    62.3000        52
    62.5200        30
    62.7400        48
    62.9600        44
    63.1800        42
    63.4000        34
    63.6200        28
    63.8400       112
    64.0600        94
    64.2800        34
    64.5000        26
    64.7200        38
    64.9400        54
    65.0000        56