File: sl1/usgs/library06/DESCRIPT/new_xrd_results_to_be_added/Rhonda_Driscoll_xrd_runs/GDS108-Muscovite.txt
/////////////////////////////////////////////////////////////////////////////////
/// Profile Data Ascii Dump (XRD)                                             ///
/////////////////////////////////////////////////////////////////////////////////

  Group     : Swayze
  Data      : GDS108
  File Name : GDS108.RAW

# Profile Datafile
          comment             = Muscovite
          date & time         = 08-04-29 06:41:57

# Measurement Condition
    X-ray tube
          target              = Cu
          voltage             = 40.0 (kV)
          current             = 30.0 (mA)
    Slits
          divergence slit     = 2.00000 (deg)
          scatter slit        = 2.00000 (deg)
          receiving slit      = 0.15000 (mm)
    Scanning
          drive axis          = Theta-2Theta
          scan range          =    4.000 -   65.000
          scan mode           = Continuous Scan
          scan speed          =   2.0000 (deg/min)
          sampling pitch      =   0.0200 (deg)
          preset time         =   0.60 (sec)

# Data      [ Total No. = 3051 ]
  <2Theta>   <   I   >
     4.0000       188
     4.2200       186
     4.4400       218
     4.6600       168
     4.8800       188
     5.1000       160
     5.3200       188
     5.5400       168
     5.7600       190
     5.9800       172
     6.2000       170
     6.4200       162
     6.6400       160
     6.8600       136
     7.0800       108
     7.3000       158
     7.5200       122
     7.7400       120
     7.9600       146
     8.1800       160
     8.4000       190
     8.6200       446
     8.8400      3546
     9.0600       196
     9.2800       124
     9.5000       134
     9.7200       110
     9.9400       114
    10.1600       102
    10.3800        98
    10.6000       116
    10.8200        82
    11.0400       102
    11.2600        88
    11.4800       118
    11.7000        82
    11.9200        90
    12.1400        94
    12.3600       108
    12.5800        90
    12.8000        82
    13.0200        68
    13.2400        66
    13.4600        88
    13.6800        78
    13.9000        66
    14.1200        66
    14.3400        62
    14.5600        68
    14.7800        58
    15.0000        70
    15.2200        70
    15.4400        54
    15.6600        48
    15.8800        60
    16.1000        58
    16.3200        72
    16.5400        70
    16.7600        60
    16.9800        52
    17.2000        80
    17.4200       148
    17.6400       670
    17.8600       402
    18.0800        66
    18.3000        54
    18.5200       102
    18.7400        56
    18.9600        56
    19.1800        58
    19.4000        54
    19.6200        64
    19.8400       108
    20.0600        78
    20.2800        66
    20.5000        58
    20.7200        60
    20.9400        54
    21.1600        56
    21.3800        52
    21.6000        62
    21.8200        42
    22.0400        56
    22.2600        64
    22.4800        64
    22.7000        68
    22.9200        56
    23.1400        50
    23.3600        46
    23.5800        56
    23.8000        94
    24.0200        74
    24.2400        38
    24.4600        46
    24.6800        54
    24.9000        72
    25.1200        68
    25.3400        98
    25.5600       126
    25.7800        94
    26.0000        82
    26.2200       118
    26.4400       454
    26.6600      4024
    26.8800      1672
    27.1000       168
    27.3200        84
    27.5400       106
    27.7600       102
    27.9800        70
    28.2000        60
    28.4200        46
    28.6400        62
    28.8600        58
    29.0800        50
    29.3000        42
    29.5200        58
    29.7400       124
    29.9600        82
    30.1800        54
    30.4000        50
    30.6200        42
    30.8400        58
    31.0600        98
    31.2800       124
    31.5000        48
    31.7200        48
    31.9400        92
    32.1600        68
    32.3800        40
    32.6000        42
    32.8200        42
    33.0400        32
    33.2600        28
    33.4800        42
    33.7000        32
    33.9200        32
    34.1400        44
    34.3600        48
    34.5800        56
    34.8000        86
    35.0200       116
    35.2400        68
    35.4600        60
    35.6800       124
    35.9000      1010
    36.1200       122
    36.3400        52
    36.5600        56
    36.7800        44
    37.0000        36
    37.2200        48
    37.4400        38
    37.6600        40
    37.8800        42
    38.1000        34
    38.3200        36
    38.5400        18
    38.7600        34
    38.9800        24
    39.2000        36
    39.4200        28
    39.6400        28
    39.8600        48
    40.0800        26
    40.3000        30
    40.5200        34
    40.7400        60
    40.9600        32
    41.1800        28
    41.4000        28
    41.6200        36
    41.8400        48
    42.0600        48
    42.2800        64
    42.5000        48
    42.7200        44
    42.9400        44
    43.1600        38
    43.3800        30
    43.6000        38
    43.8200        28
    44.0400        46
    44.2600        58
    44.4800        56
    44.7000        56
    44.9200       106
    45.1400       492
    45.3600      4822
    45.5800       422
    45.8000        94
    46.0200        88
    46.2400        60
    46.4600        48
    46.6800        52
    46.9000        24
    47.1200        38
    47.3400        30
    47.5600        38
    47.7800        36
    48.0000        36
    48.2200        30
    48.4400        20
    48.6600        34
    48.8800        28
    49.1000        28
    49.3200        36
    49.5400        18
    49.7600        42
    49.9800        30
    50.2000        30
    50.4200        22
    50.6400        28
    50.8600        30
    51.0800        28
    51.3000        40
    51.5200        24
    51.7400        32
    51.9600        30
    52.1800        28
    52.4000        24
    52.6200        52
    52.8400        34
    53.0600        36
    53.2800        28
    53.5000        42
    53.7200        32
    53.9400        30
    54.1600        30
    54.3800        30
    54.6000        32
    54.8200        42
    55.0400        86
    55.2600        78
    55.4800        54
    55.7000        66
    55.9200        46
    56.1400        44
    56.3600        34
    56.5800        42
    56.8000        28
    57.0200        24
    57.2400        34
    57.4600        26
    57.6800        34
    57.9000        26
    58.1200        40
    58.3400        24
    58.5600        24
    58.7800        34
    59.0000        30
    59.2200        30
    59.4400        38
    59.6600        24
    59.8800        36
    60.1000        30
    60.3200        48
    60.5400        42
    60.7600        42
    60.9800        50
    61.2000        36
    61.4200        28
    61.6400        36
    61.8600        50
    62.0800        48
    62.3000        32
    62.5200        26
    62.7400        30
    62.9600        32
    63.1800        32
    63.4000        32
    63.6200        24
    63.8400        62
    64.0600        56
    64.2800        32
    64.5000        28
    64.7200        38
    64.9400        36
    65.0000        58