File: sl1/usgs/library06/DESCRIPT/new_xrd_results_to_be_added/Rhonda_Driscoll_xrd_runs/GDS159---Clinochlore-or-Sheridanite.txt
/////////////////////////////////////////////////////////////////////////////////
/// Profile Data Ascii Dump (XRD)                                             ///
/////////////////////////////////////////////////////////////////////////////////

  Group     : Swayze
  Data      : GDS159
  File Name : GDS159.RAW

# Profile Datafile
          comment             = Clinochlore or Sheridanite
          date & time         = 08-04-14 07:20:35

# Measurement Condition
    X-ray tube
          target              = Cu
          voltage             = 40.0 (kV)
          current             = 30.0 (mA)
    Slits
          divergence slit     = 2.00000 (deg)
          scatter slit        = 2.00000 (deg)
          receiving slit      = 0.15000 (mm)
    Scanning
          drive axis          = Theta-2Theta
          scan range          =    4.000 -   65.000
          scan mode           = Continuous Scan
          scan speed          =   2.0000 (deg/min)
          sampling pitch      =   0.0200 (deg)
          preset time         =   0.60 (sec)

# Data      [ Total No. = 3051 ]
  <2Theta>   <   I   >
     4.0000       180
     4.2200       206
     4.4400       182
     4.6600       202
     4.8800       170
     5.1000       156
     5.3200       196
     5.5400       214
     5.7600       290
     5.9800       368
     6.2000       402
     6.4200       194
     6.6400       130
     6.8600       138
     7.0800       126
     7.3000       120
     7.5200       130
     7.7400       108
     7.9600       102
     8.1800       112
     8.4000       130
     8.6200       120
     8.8400       132
     9.0600       120
     9.2800       160
     9.5000       116
     9.7200       116
     9.9400       108
    10.1600        98
    10.3800       100
    10.6000       112
    10.8200        98
    11.0400       110
    11.2600       128
    11.4800       112
    11.7000       122
    11.9200       192
    12.1400       474
    12.3600       816
    12.5800       154
    12.8000        84
    13.0200        58
    13.2400        74
    13.4600        86
    13.6800        80
    13.9000        76
    14.1200        56
    14.3400        78
    14.5600        72
    14.7800        70
    15.0000        60
    15.2200        64
    15.4400        52
    15.6600        68
    15.8800        72
    16.1000        64
    16.3200        70
    16.5400        64
    16.7600        68
    16.9800        58
    17.2000        76
    17.4200        54
    17.6400        84
    17.8600       104
    18.0800       128
    18.3000       314
    18.5200      1002
    18.7400       344
    18.9600       156
    19.1800       324
    19.4000       204
    19.6200       178
    19.8400       146
    20.0600       136
    20.2800       112
    20.5000       112
    20.7200       142
    20.9400       102
    21.1600       110
    21.3800       112
    21.6000       102
    21.8200        94
    22.0400        84
    22.2600        98
    22.4800        70
    22.7000        84
    22.9200       104
    23.1400       108
    23.3600        88
    23.5800        88
    23.8000       100
    24.0200       114
    24.2400       110
    24.4600       170
    24.6800       538
    24.9000      1166
    25.1200       304
    25.3400       148
    25.5600       108
    25.7800        96
    26.0000        88
    26.2200        86
    26.4400       100
    26.6600        80
    26.8800        76
    27.1000        64
    27.3200        92
    27.5400        60
    27.7600        80
    27.9800        66
    28.2000        64
    28.4200       100
    28.6400        76
    28.8600        84
    29.0800        62
    29.3000        66
    29.5200        74
    29.7400        48
    29.9600        50
    30.1800        48
    30.4000        66
    30.6200        68
    30.8400        98
    31.0600       234
    31.2800       366
    31.5000       136
    31.7200        52
    31.9400        76
    32.1600        70
    32.3800        42
    32.6000        60
    32.8200        60
    33.0400        42
    33.2600        62
    33.4800        66
    33.7000        92
    33.9200        82
    34.1400        66
    34.3600       132
    34.5800       354
    34.8000       204
    35.0200       300
    35.2400       718
    35.4600       186
    35.6800        86
    35.9000        94
    36.1200       106
    36.3400       116
    36.5600       344
    36.7800       512
    37.0000       152
    37.2200        92
    37.4400       148
    37.6600       270
    37.8800       158
    38.1000        76
    38.3200        58
    38.5400        38
    38.7600        56
    38.9800        80
    39.2000        64
    39.4200        80
    39.6400       176
    39.8600       200
    40.0800        92
    40.3000        64
    40.5200        62
    40.7400        70
    40.9600        52
    41.1800        50
    41.4000        54
    41.6200        32
    41.8400        32
    42.0600        40
    42.2800        46
    42.5000        46
    42.7200        44
    42.9400        50
    43.1600        52
    43.3800        74
    43.6000        82
    43.8200        80
    44.0400        66
    44.2600       126
    44.4800       134
    44.7000       152
    44.9200       324
    45.1400       442
    45.3600       194
    45.5800        96
    45.8000        64
    46.0200        46
    46.2400        44
    46.4600        46
    46.6800        44
    46.9000        52
    47.1200        52
    47.3400        46
    47.5600        50
    47.7800        84
    48.0000       132
    48.2200       178
    48.4400       104
    48.6600        68
    48.8800        54
    49.1000        62
    49.3200        54
    49.5400        96
    49.7600       164
    49.9800       124
    50.2000        64
    50.4200        56
    50.6400        40
    50.8600        50
    51.0800        40
    51.3000        54
    51.5200        34
    51.7400        42
    51.9600        44
    52.1800        48
    52.4000        78
    52.6200        78
    52.8400        82
    53.0600        90
    53.2800        78
    53.5000        82
    53.7200        56
    53.9400        50
    54.1600        44
    54.3800        48
    54.6000        66
    54.8200       100
    55.0400       100
    55.2600        86
    55.4800        60
    55.7000        56
    55.9200        56
    56.1400        48
    56.3600        52
    56.5800        66
    56.8000        50
    57.0200        52
    57.2400        48
    57.4600        58
    57.6800        46
    57.9000        52
    58.1200       116
    58.3400       164
    58.5600       222
    58.7800       264
    59.0000       194
    59.2200       122
    59.4400        74
    59.6600        76
    59.8800       150
    60.1000       446
    60.3200       236
    60.5400       108
    60.7600        68
    60.9800        60
    61.2000        58
    61.4200        86
    61.6400       156
    61.8600        98
    62.0800        62
    62.3000        40
    62.5200        48
    62.7400        62
    62.9600        38
    63.1800        42
    63.4000        58
    63.6200        74
    63.8400        62
    64.0600        30
    64.2800        34
    64.5000        46
    64.7200        42
    64.9400        48
    65.0000        60