File: sl1/usgs/library06/DESCRIPT/new_xrd_results_to_be_added/Rhonda_Driscoll_xrd_runs/GDS155-Clinochlore,ferrous.txt
/////////////////////////////////////////////////////////////////////////////////
/// Profile Data Ascii Dump (XRD)                                             ///
/////////////////////////////////////////////////////////////////////////////////

  Group     : Swayze
  Data      : GDS155
  File Name : GDS155.RAW

# Profile Datafile
          comment             = Clinochlore-ferrous
          date & time         = 08-04-28 08:51:18

# Measurement Condition
    X-ray tube
          target              = Cu
          voltage             = 40.0 (kV)
          current             = 30.0 (mA)
    Slits
          divergence slit     = 2.00000 (deg)
          scatter slit        = 2.00000 (deg)
          receiving slit      = 0.15000 (mm)
    Scanning
          drive axis          = Theta-2Theta
          scan range          =    4.000 -   65.000
          scan mode           = Continuous Scan
          scan speed          =   2.0000 (deg/min)
          sampling pitch      =   0.0200 (deg)
          preset time         =   0.60 (sec)

# Data      [ Total No. = 3051 ]
  <2Theta>   <   I   >
     4.0000       174
     4.2200       162
     4.4400       146
     4.6600       146
     4.8800       152
     5.1000       172
     5.3200       156
     5.5400       150
     5.7600       190
     5.9800       288
     6.2000       668
     6.4200       174
     6.6400       128
     6.8600       110
     7.0800       128
     7.3000        86
     7.5200       118
     7.7400       120
     7.9600       114
     8.1800       142
     8.4000       116
     8.6200       102
     8.8400       118
     9.0600       106
     9.2800       122
     9.5000       124
     9.7200        98
     9.9400       102
    10.1600       108
    10.3800       102
    10.6000        86
    10.8200       108
    11.0400       114
    11.2600        94
    11.4800       106
    11.7000       108
    11.9200       142
    12.1400       358
    12.3600      1798
    12.5800       662
    12.8000        94
    13.0200        80
    13.2400        74
    13.4600        62
    13.6800        72
    13.9000        60
    14.1200        58
    14.3400        80
    14.5600        60
    14.7800        70
    15.0000        66
    15.2200        54
    15.4400        80
    15.6600        50
    15.8800        46
    16.1000        52
    16.3200        56
    16.5400        72
    16.7600        60
    16.9800        60
    17.2000        52
    17.4200        48
    17.6400        58
    17.8600        54
    18.0800        74
    18.3000       104
    18.5200       274
    18.7400      1354
    18.9600       146
    19.1800        68
    19.4000        58
    19.6200        50
    19.8400        60
    20.0600        60
    20.2800        78
    20.5000        46
    20.7200        32
    20.9400        52
    21.1600        44
    21.3800        54
    21.6000        36
    21.8200        50
    22.0400        56
    22.2600        48
    22.4800        58
    22.7000        62
    22.9200        34
    23.1400        36
    23.3600        48
    23.5800        44
    23.8000        50
    24.0200        50
    24.2400        76
    24.4600        62
    24.6800       120
    24.9000       762
    25.1200      3736
    25.3400       234
    25.5600        58
    25.7800        58
    26.0000        50
    26.2200        40
    26.4400        48
    26.6600        42
    26.8800        32
    27.1000        52
    27.3200        42
    27.5400        32
    27.7600        34
    27.9800        42
    28.2000        30
    28.4200        34
    28.6400        38
    28.8600        38
    29.0800        20
    29.3000        30
    29.5200        30
    29.7400        40
    29.9600        34
    30.1800        34
    30.4000        36
    30.6200        44
    30.8400        40
    31.0600        50
    31.2800        88
    31.5000       826
    31.7200       174
    31.9400        32
    32.1600        42
    32.3800        30
    32.6000        46
    32.8200        38
    33.0400        32
    33.2600        34
    33.4800        38
    33.7000        46
    33.9200        36
    34.1400        36
    34.3600        76
    34.5800        66
    34.8000        50
    35.0200        84
    35.2400        52
    35.4600        36
    35.6800        28
    35.9000        30
    36.1200        32
    36.3400        46
    36.5600        76
    36.7800        60
    37.0000        32
    37.2200        50
    37.4400        64
    37.6600        72
    37.8800        32
    38.1000        38
    38.3200        34
    38.5400        30
    38.7600        38
    38.9800        30
    39.2000        42
    39.4200        26
    39.6400        82
    39.8600        68
    40.0800        28
    40.3000        30
    40.5200        26
    40.7400        34
    40.9600        34
    41.1800        32
    41.4000        26
    41.6200        38
    41.8400        24
    42.0600        26
    42.2800        36
    42.5000        30
    42.7200        36
    42.9400        42
    43.1600        32
    43.3800        36
    43.6000        38
    43.8200        30
    44.0400        32
    44.2600        36
    44.4800        38
    44.7000       176
    44.9200       138
    45.1400       166
    45.3600        60
    45.5800        58
    45.8000        28
    46.0200        38
    46.2400        24
    46.4600        46
    46.6800        18
    46.9000        28
    47.1200        18
    47.3400        36
    47.5600        42
    47.7800        26
    48.0000        56
    48.2200        96
    48.4400        46
    48.6600        32
    48.8800        36
    49.1000        28
    49.3200        34
    49.5400        18
    49.7600        46
    49.9800        56
    50.2000        30
    50.4200        30
    50.6400        40
    50.8600        22
    51.0800        38
    51.3000        26
    51.5200        26
    51.7400        36
    51.9600        36
    52.1800        36
    52.4000        36
    52.6200        32
    52.8400        34
    53.0600        44
    53.2800        32
    53.5000        32
    53.7200        30
    53.9400        36
    54.1600        40
    54.3800        34
    54.6000        32
    54.8200        40
    55.0400        50
    55.2600        72
    55.4800        56
    55.7000        28
    55.9200        28
    56.1400        36
    56.3600        24
    56.5800        24
    56.8000        36
    57.0200        30
    57.2400        36
    57.4600        20
    57.6800        32
    57.9000        38
    58.1200        30
    58.3400        30
    58.5600        94
    58.7800       156
    59.0000       122
    59.2200        74
    59.4400        34
    59.6600        72
    59.8800        60
    60.1000        40
    60.3200        38
    60.5400        36
    60.7600        42
    60.9800        38
    61.2000        42
    61.4200        40
    61.6400        28
    61.8600        38
    62.0800        24
    62.3000        30
    62.5200        24
    62.7400        36
    62.9600        28
    63.1800        32
    63.4000        28
    63.6200        26
    63.8400        32
    64.0600        26
    64.2800        22
    64.5000        32
    64.7200        24
    64.9400        32
    65.0000        56