File: sl1/usgs/library06/DESCRIPT/new_xrd_results_to_be_added/Rhonda_Driscoll_xrd_runs/GDS18---Mordenite.txt
/////////////////////////////////////////////////////////////////////////////////
/// Profile Data Ascii Dump (XRD)                                             ///
/////////////////////////////////////////////////////////////////////////////////

  Group     : Swayze
  Data      : GDS18
  File Name : GDS18.RAW

# Profile Datafile
          comment             = Mordenite
          date & time         = 08-03-24 07:48:58

# Measurement Condition
    X-ray tube
          target              = Cu
          voltage             = 40.0 (kV)
          current             = 30.0 (mA)
    Slits
          divergence slit     = 2.00000 (deg)
          scatter slit        = 2.00000 (deg)
          receiving slit      = 0.15000 (mm)
    Scanning
          drive axis          = Theta-2Theta
          scan range          =    4.000 -   65.000
          scan mode           = Continuous Scan
          scan speed          =   2.0000 (deg/min)
          sampling pitch      =   0.0200 (deg)
          preset time         =   0.60 (sec)

# Data      [ Total No. = 3051 ]
  <2Theta>   <   I   >
     4.0000       180
     4.2200       190
     4.4400       168
     4.6600       176
     4.8800       174
     5.1000       156
     5.3200       176
     5.5400       138
     5.7600       162
     5.9800       200
     6.2000       222
     6.4200       538
     6.6400       142
     6.8600       124
     7.0800       138
     7.3000       118
     7.5200       104
     7.7400       110
     7.9600       128
     8.1800       132
     8.4000       140
     8.6200       146
     8.8400       122
     9.0600       134
     9.2800       168
     9.5000       386
     9.7200       830
     9.9400       132
    10.1600       106
    10.3800       110
    10.6000       108
    10.8200        94
    11.0400        90
    11.2600        78
    11.4800        98
    11.7000        84
    11.9200        86
    12.1400        82
    12.3600        74
    12.5800        94
    12.8000       108
    13.0200       156
    13.2400       218
    13.4600       168
    13.6800       310
    13.9000       128
    14.1200       102
    14.3400        94
    14.5600       116
    14.7800       106
    15.0000       130
    15.2200       448
    15.4400        70
    15.6600        74
    15.8800        72
    16.1000        62
    16.3200        72
    16.5400        74
    16.7600        46
    16.9800        58
    17.2000        76
    17.4200        76
    17.6400        58
    17.8600        58
    18.0800        82
    18.3000        72
    18.5200        62
    18.7400        76
    18.9600        90
    19.1800       166
    19.4000       486
    19.6200       466
    19.8400       118
    20.0600        78
    20.2800        66
    20.5000        88
    20.7200        94
    20.9400        70
    21.1600       102
    21.3800       254
    21.6000        84
    21.8200       212
    22.0400      1386
    22.2600       808
    22.4800        84
    22.7000        88
    22.9200       148
    23.1400       190
    23.3600       114
    23.5800        96
    23.8000        78
    24.0200        64
    24.2400        78
    24.4600        90
    24.6800        94
    24.9000       104
    25.1200       156
    25.3400       278
    25.5600       496
    25.7800       156
    26.0000       812
    26.2200      1660
    26.4400       274
    26.6600       112
    26.8800       126
    27.1000       130
    27.3200       310
    27.5400       734
    27.7600      1018
    27.9800       162
    28.2000       124
    28.4200       102
    28.6400       118
    28.8600       114
    29.0800       100
    29.3000        64
    29.5200        64
    29.7400        76
    29.9600        80
    30.1800       116
    30.4000       116
    30.6200       190
    30.8400       256
    31.0600        72
    31.2800        74
    31.5000        72
    31.7200        66
    31.9400        56
    32.1600        72
    32.3800        76
    32.6000        96
    32.8200       112
    33.0400       154
    33.2600        84
    33.4800        58
    33.7000        68
    33.9200       126
    34.1400        60
    34.3600        70
    34.5800       100
    34.8000       178
    35.0200       308
    35.2400        88
    35.4600       218
    35.6800       122
    35.9000        68
    36.1200        72
    36.3400       148
    36.5600       100
    36.7800       106
    37.0000        78
    37.2200        60
    37.4400        68
    37.6600        58
    37.8800        68
    38.1000        50
    38.3200        48
    38.5400        46
    38.7600        60
    38.9800        70
    39.2000        74
    39.4200       106
    39.6400        98
    39.8600        68
    40.0800        62
    40.3000       132
    40.5200        88
    40.7400        70
    40.9600        60
    41.1800        64
    41.4000        72
    41.6200        94
    41.8400        80
    42.0600        60
    42.2800        90
    42.5000        78
    42.7200        72
    42.9400        50
    43.1600        54
    43.3800        56
    43.6000        44
    43.8200        96
    44.0400       290
    44.2600       236
    44.4800        98
    44.7000        68
    44.9200       106
    45.1400        74
    45.3600       120
    45.5800        86
    45.8000        68
    46.0200        72
    46.2400       112
    46.4600       244
    46.6800        94
    46.9000       100
    47.1200        88
    47.3400       102
    47.5600        40
    47.7800        64
    48.0000        72
    48.2200       124
    48.4400        90
    48.6600        82
    48.8800        70
    49.1000        92
    49.3200        52
    49.5400        38
    49.7600        58
    49.9800        78
    50.2000       132
    50.4200       174
    50.6400        94
    50.8600        92
    51.0800        56
    51.3000        64
    51.5200        48
    51.7400        54
    51.9600        46
    52.1800        34
    52.4000        56
    52.6200        56
    52.8400        40
    53.0600        68
    53.2800        78
    53.5000        52
    53.7200        76
    53.9400       118
    54.1600        74
    54.3800        62
    54.6000        66
    54.8200        92
    55.0400       140
    55.2600        90
    55.4800        64
    55.7000        54
    55.9200        58
    56.1400        60
    56.3600        54
    56.5800        80
    56.8000        54
    57.0200        54
    57.2400        52
    57.4600        70
    57.6800        74
    57.9000        54
    58.1200        52
    58.3400        36
    58.5600        46
    58.7800        54
    59.0000        58
    59.2200        54
    59.4400        62
    59.6600       118
    59.8800        88
    60.1000        54
    60.3200        54
    60.5400       122
    60.7600       160
    60.9800        64
    61.2000        50
    61.4200        50
    61.6400        54
    61.8600        58
    62.0800        52
    62.3000        52
    62.5200        62
    62.7400        88
    62.9600        90
    63.1800        48
    63.4000        46
    63.6200        48
    63.8400        54
    64.0600        72
    64.2800       156
    64.5000       154
    64.7200        66
    64.9400        54
    65.0000        54