File: sl1/usgs/library06/DESCRIPT/new_xrd_results_to_be_added/Rhonda_Driscoll_xrd_runs/GDS188-Saponite.txt
/////////////////////////////////////////////////////////////////////////////////
/// Profile Data Ascii Dump (XRD)                                             ///
/////////////////////////////////////////////////////////////////////////////////

  Group     : Swayze
  Data      : GDS188
  File Name : GDS188.RAW

# Profile Datafile
          comment             = Saponite
          date & time         = 08-04-28 08:20:18

# Measurement Condition
    X-ray tube
          target              = Cu
          voltage             = 40.0 (kV)
          current             = 30.0 (mA)
    Slits
          divergence slit     = 2.00000 (deg)
          scatter slit        = 2.00000 (deg)
          receiving slit      = 0.15000 (mm)
    Scanning
          drive axis          = Theta-2Theta
          scan range          =    4.000 -   65.000
          scan mode           = Continuous Scan
          scan speed          =   2.0000 (deg/min)
          sampling pitch      =   0.0200 (deg)
          preset time         =   0.60 (sec)

# Data      [ Total No. = 3051 ]
  <2Theta>   <   I   >
     4.0000       234
     4.2200       222
     4.4400       226
     4.6600       232
     4.8800       224
     5.1000       232
     5.3200       230
     5.5400       250
     5.7600       282
     5.9800       304
     6.2000       348
     6.4200       460
     6.6400       608
     6.8600       852
     7.0800      1440
     7.3000      1390
     7.5200       716
     7.7400       472
     7.9600       288
     8.1800       222
     8.4000       204
     8.6200       146
     8.8400       164
     9.0600       160
     9.2800       140
     9.5000       122
     9.7200       146
     9.9400       122
    10.1600       126
    10.3800       180
    10.6000       112
    10.8200        88
    11.0400       100
    11.2600        90
    11.4800        96
    11.7000        98
    11.9200        88
    12.1400        84
    12.3600        82
    12.5800        76
    12.8000        72
    13.0200       100
    13.2400        74
    13.4600        78
    13.6800       102
    13.9000        68
    14.1200        94
    14.3400       116
    14.5600       152
    14.7800       114
    15.0000        88
    15.2200        88
    15.4400        92
    15.6600        80
    15.8800        74
    16.1000        62
    16.3200        74
    16.5400        62
    16.7600        78
    16.9800        92
    17.2000        62
    17.4200        64
    17.6400        78
    17.8600        80
    18.0800        62
    18.3000        68
    18.5200        66
    18.7400        66
    18.9600       116
    19.1800       276
    19.4000       216
    19.6200       204
    19.8400       136
    20.0600       156
    20.2800       126
    20.5000       106
    20.7200       110
    20.9400       128
    21.1600       110
    21.3800       108
    21.6000       102
    21.8200        98
    22.0400       116
    22.2600       110
    22.4800       106
    22.7000       118
    22.9200        88
    23.1400       100
    23.3600       102
    23.5800        84
    23.8000        92
    24.0200        82
    24.2400        96
    24.4600        96
    24.6800       108
    24.9000        88
    25.1200        88
    25.3400        86
    25.5600        84
    25.7800        94
    26.0000        88
    26.2200       122
    26.4400       116
    26.6600       110
    26.8800       128
    27.1000       146
    27.3200       128
    27.5400       140
    27.7600       116
    27.9800       116
    28.2000       172
    28.4200       280
    28.6400       230
    28.8600       258
    29.0800       384
    29.3000       472
    29.5200       294
    29.7400       184
    29.9600       126
    30.1800       152
    30.4000        88
    30.6200        96
    30.8400       106
    31.0600        68
    31.2800        76
    31.5000       142
    31.7200       116
    31.9400        56
    32.1600        70
    32.3800        52
    32.6000        72
    32.8200        68
    33.0400        76
    33.2600        56
    33.4800        70
    33.7000       104
    33.9200       174
    34.1400       216
    34.3600       194
    34.5800       180
    34.8000       206
    35.0200       188
    35.2400       210
    35.4600       198
    35.6800       194
    35.9000       166
    36.1200       166
    36.3400       168
    36.5600       156
    36.7800       132
    37.0000       122
    37.2200       102
    37.4400       106
    37.6600       132
    37.8800       122
    38.1000       132
    38.3200       114
    38.5400       104
    38.7600       118
    38.9800       128
    39.2000       106
    39.4200       120
    39.6400       110
    39.8600        96
    40.0800        98
    40.3000        74
    40.5200        76
    40.7400        88
    40.9600        80
    41.1800        84
    41.4000        86
    41.6200        82
    41.8400       102
    42.0600       118
    42.2800       116
    42.5000        68
    42.7200        86
    42.9400        72
    43.1600        62
    43.3800        74
    43.6000        78
    43.8200        76
    44.0400        74
    44.2600       106
    44.4800        90
    44.7000        84
    44.9200       102
    45.1400       100
    45.3600       124
    45.5800        80
    45.8000        52
    46.0200        58
    46.2400        50
    46.4600        70
    46.6800        58
    46.9000        62
    47.1200        50
    47.3400        56
    47.5600        32
    47.7800        56
    48.0000        50
    48.2200        52
    48.4400        50
    48.6600        46
    48.8800        36
    49.1000        38
    49.3200        44
    49.5400        52
    49.7600        40
    49.9800        50
    50.2000        68
    50.4200        56
    50.6400        56
    50.8600        36
    51.0800        52
    51.3000        54
    51.5200        44
    51.7400        42
    51.9600        76
    52.1800        86
    52.4000        78
    52.6200       118
    52.8400        70
    53.0600        78
    53.2800        84
    53.5000        82
    53.7200        70
    53.9400        76
    54.1600        54
    54.3800        56
    54.6000        70
    54.8200        90
    55.0400        72
    55.2600        90
    55.4800        84
    55.7000        86
    55.9200        88
    56.1400        68
    56.3600        82
    56.5800        66
    56.8000        82
    57.0200        72
    57.2400        50
    57.4600        68
    57.6800        82
    57.9000        74
    58.1200        84
    58.3400        68
    58.5600        60
    58.7800        68
    59.0000        66
    59.2200        70
    59.4400        82
    59.6600        80
    59.8800        74
    60.1000       176
    60.3200       308
    60.5400       232
    60.7600       158
    60.9800       110
    61.2000        92
    61.4200       106
    61.6400        88
    61.8600        78
    62.0800        64
    62.3000        54
    62.5200        82
    62.7400        74
    62.9600        62
    63.1800        58
    63.4000        40
    63.6200        52
    63.8400        70
    64.0600        54
    64.2800        52
    64.5000        62
    64.7200        84
    64.9400        66
    65.0000        64