File: sl1/usgs/library06/DESCRIPT/new_xrd_results_to_be_added/Rhonda_Driscoll_xrd_runs/GDS157-Clino-or-Ripido.txt
/////////////////////////////////////////////////////////////////////////////////
/// Profile Data Ascii Dump (XRD)                                             ///
/////////////////////////////////////////////////////////////////////////////////

  Group     : Swayze
  Data      : GDS157
  File Name : GDS157.RAW

# Profile Datafile
          comment             = Clinoptilolite/Ripidolite
          date & time         = 08-04-28 07:18:27

# Measurement Condition
    X-ray tube
          target              = Cu
          voltage             = 40.0 (kV)
          current             = 30.0 (mA)
    Slits
          divergence slit     = 2.00000 (deg)
          scatter slit        = 2.00000 (deg)
          receiving slit      = 0.15000 (mm)
    Scanning
          drive axis          = Theta-2Theta
          scan range          =    4.000 -   65.000
          scan mode           = Continuous Scan
          scan speed          =   2.0000 (deg/min)
          sampling pitch      =   0.0200 (deg)
          preset time         =   0.60 (sec)

# Data      [ Total No. = 3051 ]
  <2Theta>   <   I   >
     4.0000       172
     4.2200       188
     4.4400       198
     4.6600       158
     4.8800       194
     5.1000       140
     5.3200       168
     5.5400       174
     5.7600       186
     5.9800       266
     6.2000       406
     6.4200       152
     6.6400       136
     6.8600       130
     7.0800       122
     7.3000       114
     7.5200       116
     7.7400       130
     7.9600       126
     8.1800        90
     8.4000       130
     8.6200       122
     8.8400       104
     9.0600       116
     9.2800       112
     9.5000       116
     9.7200        96
     9.9400       114
    10.1600       106
    10.3800        98
    10.6000       120
    10.8200       100
    11.0400        84
    11.2600        86
    11.4800        98
    11.7000       102
    11.9200       178
    12.1400       334
    12.3600      1744
    12.5800       184
    12.8000        80
    13.0200        64
    13.2400        66
    13.4600        70
    13.6800        76
    13.9000        72
    14.1200        72
    14.3400        64
    14.5600        72
    14.7800        58
    15.0000        60
    15.2200        72
    15.4400        54
    15.6600        52
    15.8800        54
    16.1000        58
    16.3200        64
    16.5400        62
    16.7600        70
    16.9800        60
    17.2000        60
    17.4200        48
    17.6400        56
    17.8600        58
    18.0800        72
    18.3000        76
    18.5200       266
    18.7400       616
    18.9600        94
    19.1800        82
    19.4000        64
    19.6200        56
    19.8400        62
    20.0600        82
    20.2800        68
    20.5000        56
    20.7200        64
    20.9400        58
    21.1600        62
    21.3800        56
    21.6000        68
    21.8200        56
    22.0400        48
    22.2600        62
    22.4800        52
    22.7000        52
    22.9200        52
    23.1400        48
    23.3600        34
    23.5800        58
    23.8000        66
    24.0200        76
    24.2400        52
    24.4600        68
    24.6800       120
    24.9000       796
    25.1200      1280
    25.3400        86
    25.5600        42
    25.7800        56
    26.0000        54
    26.2200        44
    26.4400        52
    26.6600        58
    26.8800        50
    27.1000        40
    27.3200        38
    27.5400        58
    27.7600        32
    27.9800        42
    28.2000        60
    28.4200        52
    28.6400        32
    28.8600        58
    29.0800        38
    29.3000        42
    29.5200        34
    29.7400        48
    29.9600        58
    30.1800        46
    30.4000        48
    30.6200        46
    30.8400        34
    31.0600        50
    31.2800       126
    31.5000       480
    31.7200        62
    31.9400        46
    32.1600        34
    32.3800        52
    32.6000        54
    32.8200        40
    33.0400        40
    33.2600        48
    33.4800        56
    33.7000        32
    33.9200        38
    34.1400        48
    34.3600       180
    34.5800        74
    34.8000        84
    35.0200       156
    35.2400        62
    35.4600        44
    35.6800        36
    35.9000        32
    36.1200        44
    36.3400        82
    36.5600       170
    36.7800        52
    37.0000        22
    37.2200        64
    37.4400       138
    37.6600        96
    37.8800        46
    38.1000        42
    38.3200        44
    38.5400        38
    38.7600        40
    38.9800        30
    39.2000        48
    39.4200        68
    39.6400       144
    39.8600        62
    40.0800        44
    40.3000        38
    40.5200        44
    40.7400        42
    40.9600        28
    41.1800        30
    41.4000        30
    41.6200        38
    41.8400        26
    42.0600        26
    42.2800        34
    42.5000        40
    42.7200        44
    42.9400        38
    43.1600        32
    43.3800        36
    43.6000        60
    43.8200        28
    44.0400        28
    44.2600        32
    44.4800        58
    44.7000       184
    44.9200       222
    45.1400       220
    45.3600        72
    45.5800        50
    45.8000        26
    46.0200        30
    46.2400        40
    46.4600        40
    46.6800        34
    46.9000        30
    47.1200        28
    47.3400        38
    47.5600        36
    47.7800        54
    48.0000        98
    48.2200       104
    48.4400        58
    48.6600        36
    48.8800        34
    49.1000        34
    49.3200        22
    49.5400        58
    49.7600        66
    49.9800        60
    50.2000        34
    50.4200        44
    50.6400        42
    50.8600        26
    51.0800        36
    51.3000        26
    51.5200        30
    51.7400        32
    51.9600        34
    52.1800        44
    52.4000        36
    52.6200        32
    52.8400        34
    53.0600        44
    53.2800        60
    53.5000        40
    53.7200        32
    53.9400        42
    54.1600        32
    54.3800        52
    54.6000        32
    54.8200        42
    55.0400        64
    55.2600        70
    55.4800        46
    55.7000        38
    55.9200        28
    56.1400        32
    56.3600        34
    56.5800        32
    56.8000        26
    57.0200        34
    57.2400        38
    57.4600        32
    57.6800        40
    57.9000        44
    58.1200        34
    58.3400        52
    58.5600       100
    58.7800       230
    59.0000       160
    59.2200        52
    59.4400        48
    59.6600       164
    59.8800        88
    60.1000        40
    60.3200        40
    60.5400        46
    60.7600        50
    60.9800        50
    61.2000        84
    61.4200        44
    61.6400        38
    61.8600        24
    62.0800        38
    62.3000        26
    62.5200        42
    62.7400        32
    62.9600        30
    63.1800        36
    63.4000        40
    63.6200        34
    63.8400        32
    64.0600        38
    64.2800        32
    64.5000        34
    64.7200        32
    64.9400        30
    65.0000        36