File: sl1/usgs/library06/DESCRIPT/new_xrd_results_to_be_added/Rhonda_Driscoll_xrd_runs/GDS182-Penninite.txt
/////////////////////////////////////////////////////////////////////////////////
/// Profile Data Ascii Dump (XRD)                                             ///
/////////////////////////////////////////////////////////////////////////////////

  Group     : Swayze
  Data      : GDS182
  File Name : GDS182.RAW

# Profile Datafile
          comment             = Penninite
          date & time         = 08-04-28 07:49:23

# Measurement Condition
    X-ray tube
          target              = Cu
          voltage             = 40.0 (kV)
          current             = 30.0 (mA)
    Slits
          divergence slit     = 2.00000 (deg)
          scatter slit        = 2.00000 (deg)
          receiving slit      = 0.15000 (mm)
    Scanning
          drive axis          = Theta-2Theta
          scan range          =    4.000 -   65.000
          scan mode           = Continuous Scan
          scan speed          =   2.0000 (deg/min)
          sampling pitch      =   0.0200 (deg)
          preset time         =   0.60 (sec)

# Data      [ Total No. = 3051 ]
  <2Theta>   <   I   >
     4.0000       192
     4.2200       178
     4.4400       180
     4.6600       182
     4.8800       186
     5.1000       174
     5.3200       188
     5.5400       208
     5.7600       298
     5.9800       636
     6.2000      1376
     6.4200       176
     6.6400       164
     6.8600       136
     7.0800       124
     7.3000       132
     7.5200       128
     7.7400       126
     7.9600       126
     8.1800        94
     8.4000       110
     8.6200       116
     8.8400       118
     9.0600       130
     9.2800       114
     9.5000       126
     9.7200        98
     9.9400       106
    10.1600        84
    10.3800       104
    10.6000       106
    10.8200       106
    11.0400       110
    11.2600       104
    11.4800       134
    11.7000       162
    11.9200       406
    12.1400      1228
    12.3600      6584
    12.5800       244
    12.8000       110
    13.0200        96
    13.2400        74
    13.4600        70
    13.6800        80
    13.9000        74
    14.1200        52
    14.3400        76
    14.5600        66
    14.7800        50
    15.0000        48
    15.2200        68
    15.4400        60
    15.6600        62
    15.8800        80
    16.1000        66
    16.3200        78
    16.5400        68
    16.7600        70
    16.9800        82
    17.2000        68
    17.4200        86
    17.6400        80
    17.8600       102
    18.0800       210
    18.3000       832
    18.5200      8148
    18.7400       576
    18.9600       138
    19.1800       112
    19.4000        74
    19.6200        74
    19.8400        80
    20.0600        56
    20.2800        60
    20.5000        56
    20.7200        66
    20.9400        42
    21.1600        66
    21.3800        60
    21.6000        56
    21.8200        60
    22.0400        62
    22.2600        78
    22.4800        46
    22.7000        72
    22.9200        72
    23.1400        60
    23.3600        58
    23.5800        78
    23.8000       116
    24.0200       122
    24.2400       150
    24.4600       394
    24.6800      2150
    24.9000      8524
    25.1200       354
    25.3400       120
    25.5600        66
    25.7800        64
    26.0000        58
    26.2200        56
    26.4400        60
    26.6600        50
    26.8800        50
    27.1000        54
    27.3200        48
    27.5400        58
    27.7600        46
    27.9800        52
    28.2000        52
    28.4200        38
    28.6400        44
    28.8600        46
    29.0800        38
    29.3000        40
    29.5200        54
    29.7400        56
    29.9600        70
    30.1800        60
    30.4000        54
    30.6200        86
    30.8400       170
    31.0600       986
    31.2800      2548
    31.5000       138
    31.7200        68
    31.9400        54
    32.1600        48
    32.3800        46
    32.6000        38
    32.8200        34
    33.0400        28
    33.2600        32
    33.4800        42
    33.7000        20
    33.9200        28
    34.1400        48
    34.3600        38
    34.5800        88
    34.8000        78
    35.0200        64
    35.2400       120
    35.4600        56
    35.6800        44
    35.9000        38
    36.1200        44
    36.3400        46
    36.5600        78
    36.7800        94
    37.0000        48
    37.2200        46
    37.4400        52
    37.6600       188
    37.8800        58
    38.1000        50
    38.3200        54
    38.5400        42
    38.7600        28
    38.9800        38
    39.2000        42
    39.4200        56
    39.6400        62
    39.8600        58
    40.0800        38
    40.3000        30
    40.5200        32
    40.7400        38
    40.9600        28
    41.1800        38
    41.4000        34
    41.6200        30
    41.8400        34
    42.0600        32
    42.2800        30
    42.5000        50
    42.7200        50
    42.9400        32
    43.1600        50
    43.3800        44
    43.6000        56
    43.8200        52
    44.0400       142
    44.2600      1148
    44.4800       130
    44.7000        74
    44.9200       104
    45.1400        98
    45.3600        64
    45.5800        56
    45.8000        26
    46.0200        42
    46.2400        26
    46.4600        28
    46.6800        32
    46.9000        34
    47.1200        36
    47.3400        34
    47.5600        34
    47.7800        40
    48.0000        60
    48.2200        34
    48.4400        32
    48.6600        36
    48.8800        42
    49.1000        36
    49.3200        44
    49.5400        52
    49.7600        58
    49.9800        42
    50.2000        34
    50.4200        38
    50.6400        38
    50.8600        44
    51.0800        90
    51.3000        28
    51.5200        32
    51.7400        26
    51.9600        38
    52.1800        36
    52.4000        30
    52.6200        48
    52.8400        34
    53.0600        48
    53.2800        30
    53.5000        38
    53.7200        36
    53.9400        30
    54.1600        46
    54.3800        32
    54.6000        36
    54.8200        48
    55.0400        42
    55.2600        32
    55.4800        32
    55.7000        40
    55.9200        34
    56.1400        40
    56.3600        38
    56.5800        28
    56.8000        36
    57.0200        32
    57.2400        38
    57.4600        38
    57.6800        46
    57.9000       168
    58.1200       110
    58.3400        72
    58.5600       108
    58.7800        94
    59.0000        44
    59.2200        54
    59.4400        36
    59.6600        50
    59.8800        58
    60.1000        78
    60.3200        54
    60.5400        60
    60.7600        26
    60.9800        44
    61.2000        38
    61.4200        38
    61.6400        40
    61.8600        42
    62.0800        20
    62.3000        38
    62.5200        30
    62.7400        50
    62.9600        32
    63.1800        22
    63.4000        32
    63.6200        28
    63.8400        30
    64.0600        32
    64.2800        38
    64.5000        36
    64.7200        36
    64.9400       128
    65.0000       266