File: sl1/usgs/library06/DESCRIPT/new_xrd_results_to_be_added/Rhonda_Driscoll_xrd_runs/GDS184---Roscoelite.txt
/////////////////////////////////////////////////////////////////////////////////
/// Profile Data Ascii Dump (XRD)                                             ///
/////////////////////////////////////////////////////////////////////////////////

  Group     : Swayze
  Data      : GDS184
  File Name : GDS184.RAW

# Profile Datafile
          comment             = Roscoelite
          date & time         = 08-04-14 09:26:47

# Measurement Condition
    X-ray tube
          target              = Cu
          voltage             = 40.0 (kV)
          current             = 30.0 (mA)
    Slits
          divergence slit     = 2.00000 (deg)
          scatter slit        = 2.00000 (deg)
          receiving slit      = 0.15000 (mm)
    Scanning
          drive axis          = Theta-2Theta
          scan range          =    4.000 -   65.000
          scan mode           = Continuous Scan
          scan speed          =   2.0000 (deg/min)
          sampling pitch      =   0.0200 (deg)
          preset time         =   0.60 (sec)

# Data      [ Total No. = 3051 ]
  <2Theta>   <   I   >
     4.0000       182
     4.2200       168
     4.4400       164
     4.6600       166
     4.8800       174
     5.1000       178
     5.3200       146
     5.5400       184
     5.7600       164
     5.9800       152
     6.2000       178
     6.4200       136
     6.6400       138
     6.8600       142
     7.0800       120
     7.3000       122
     7.5200       110
     7.7400       116
     7.9600       132
     8.1800       146
     8.4000       186
     8.6200       374
     8.8400      2308
     9.0600       160
     9.2800       116
     9.5000       106
     9.7200       106
     9.9400       108
    10.1600       114
    10.3800        88
    10.6000        92
    10.8200       100
    11.0400        96
    11.2600        96
    11.4800        84
    11.7000        78
    11.9200        76
    12.1400        72
    12.3600        84
    12.5800        64
    12.8000        64
    13.0200        68
    13.2400        54
    13.4600        62
    13.6800        60
    13.9000        56
    14.1200        70
    14.3400        58
    14.5600        58
    14.7800        50
    15.0000        66
    15.2200        48
    15.4400        58
    15.6600        56
    15.8800        48
    16.1000        60
    16.3200        52
    16.5400        58
    16.7600        54
    16.9800        38
    17.2000        40
    17.4200        58
    17.6400        84
    17.8600        78
    18.0800        32
    18.3000        42
    18.5200        56
    18.7400        62
    18.9600        56
    19.1800        64
    19.4000        74
    19.6200        56
    19.8400        54
    20.0600        64
    20.2800        64
    20.5000        44
    20.7200        48
    20.9400        58
    21.1600        40
    21.3800        64
    21.6000        52
    21.8200        60
    22.0400        54
    22.2600        44
    22.4800        50
    22.7000        56
    22.9200        82
    23.1400        52
    23.3600        80
    23.5800        68
    23.8000        58
    24.0200        64
    24.2400       124
    24.4600        72
    24.6800        74
    24.9000        46
    25.1200        64
    25.3400        64
    25.5600        78
    25.7800        58
    26.0000        66
    26.2200       102
    26.4400       370
    26.6600      3188
    26.8800       574
    27.1000        76
    27.3200        56
    27.5400        94
    27.7600        72
    27.9800        60
    28.2000        50
    28.4200        68
    28.6400       116
    28.8600        92
    29.0800        46
    29.3000        40
    29.5200        40
    29.7400        48
    29.9600        52
    30.1800        44
    30.4000        52
    30.6200       124
    30.8400        94
    31.0600        44
    31.2800        44
    31.5000        46
    31.7200        38
    31.9400        46
    32.1600        44
    32.3800        36
    32.6000        50
    32.8200        44
    33.0400        66
    33.2600       158
    33.4800        72
    33.7000        44
    33.9200        84
    34.1400        54
    34.3600        56
    34.5800        74
    34.8000        46
    35.0200        58
    35.2400        38
    35.4600        60
    35.6800        80
    35.9000       392
    36.1200        52
    36.3400        56
    36.5600       110
    36.7800        50
    37.0000        50
    37.2200        62
    37.4400        66
    37.6600        28
    37.8800        18
    38.1000        56
    38.3200        42
    38.5400        40
    38.7600        32
    38.9800        30
    39.2000        32
    39.4200        48
    39.6400        60
    39.8600        42
    40.0800        40
    40.3000        44
    40.5200        60
    40.7400        68
    40.9600        52
    41.1800        54
    41.4000        30
    41.6200        52
    41.8400        54
    42.0600        38
    42.2800        40
    42.5000        38
    42.7200        38
    42.9400        26
    43.1600        46
    43.3800        28
    43.6000        30
    43.8200        30
    44.0400        32
    44.2600        28
    44.4800        18
    44.7000        28
    44.9200        74
    45.1400       238
    45.3600       710
    45.5800       114
    45.8000        54
    46.0200        42
    46.2400        42
    46.4600        38
    46.6800        38
    46.9000        36
    47.1200        28
    47.3400        30
    47.5600        28
    47.7800        26
    48.0000        30
    48.2200        18
    48.4400        26
    48.6600        34
    48.8800        30
    49.1000        30
    49.3200        30
    49.5400        26
    49.7600        30
    49.9800        30
    50.2000        44
    50.4200        26
    50.6400        38
    50.8600        26
    51.0800        34
    51.3000        28
    51.5200        28
    51.7400        32
    51.9600        28
    52.1800        22
    52.4000        30
    52.6200        30
    52.8400        40
    53.0600        38
    53.2800        22
    53.5000        24
    53.7200        34
    53.9400        46
    54.1600        42
    54.3800        40
    54.6000        66
    54.8200        78
    55.0400       210
    55.2600        76
    55.4800        46
    55.7000        50
    55.9200        30
    56.1400        30
    56.3600        42
    56.5800        26
    56.8000        38
    57.0200        28
    57.2400        36
    57.4600        44
    57.6800        44
    57.9000        40
    58.1200        28
    58.3400        40
    58.5600        28
    58.7800        30
    59.0000        32
    59.2200        26
    59.4400        28
    59.6600        32
    59.8800        44
    60.1000        58
    60.3200        34
    60.5400        54
    60.7600        56
    60.9800        56
    61.2000        34
    61.4200        44
    61.6400        46
    61.8600        42
    62.0800        52
    62.3000        44
    62.5200        44
    62.7400        38
    62.9600        34
    63.1800        28
    63.4000        34
    63.6200        36
    63.8400        32
    64.0600        30
    64.2800        30
    64.5000        44
    64.7200        30
    64.9400        52
    65.0000        52