File: sl1/usgs/library06/DESCRIPT/new_xrd_results_to_be_added/Rhonda_Driscoll_xrd_runs/GDS25---Butlerite.txt
/////////////////////////////////////////////////////////////////////////////////
/// Profile Data Ascii Dump (XRD)                                             ///
/////////////////////////////////////////////////////////////////////////////////

  Group     : Swayze
  Data      : GDS25
  File Name : GDS25.RAW

# Profile Datafile
          comment             = Butlerite
          date & time         = 08-03-27 06:45:47

# Measurement Condition
    X-ray tube
          target              = Cu
          voltage             = 40.0 (kV)
          current             = 30.0 (mA)
    Slits
          divergence slit     = 2.00000 (deg)
          scatter slit        = 2.00000 (deg)
          receiving slit      = 0.15000 (mm)
    Scanning
          drive axis          = Theta-2Theta
          scan range          =    4.000 -   65.000
          scan mode           = Continuous Scan
          scan speed          =   2.0000 (deg/min)
          sampling pitch      =   0.0200 (deg)
          preset time         =   0.60 (sec)

# Data      [ Total No. = 3051 ]
  <2Theta>   <   I   >
     4.0000       202
     4.2200       168
     4.4400       192
     4.6600       164
     4.8800       150
     5.1000       152
     5.3200       150
     5.5400       154
     5.7600       136
     5.9800       154
     6.2000       142
     6.4200       134
     6.6400       124
     6.8600       140
     7.0800       114
     7.3000       126
     7.5200       124
     7.7400       120
     7.9600       120
     8.1800        96
     8.4000       104
     8.6200       108
     8.8400       116
     9.0600       112
     9.2800       102
     9.5000       104
     9.7200       116
     9.9400        92
    10.1600       100
    10.3800       100
    10.6000        92
    10.8200        96
    11.0400        94
    11.2600        92
    11.4800        74
    11.7000        80
    11.9200        84
    12.1400        66
    12.3600        72
    12.5800        70
    12.8000        72
    13.0200        72
    13.2400        76
    13.4600        60
    13.6800        80
    13.9000        76
    14.1200        90
    14.3400        80
    14.5600        68
    14.7800        74
    15.0000        56
    15.2200        68
    15.4400        64
    15.6600        84
    15.8800       176
    16.1000        64
    16.3200        66
    16.5400        54
    16.7600        56
    16.9800        66
    17.2000       106
    17.4200       192
    17.6400      1060
    17.8600       104
    18.0800        70
    18.3000        64
    18.5200       112
    18.7400       102
    18.9600        52
    19.1800        44
    19.4000        48
    19.6200        68
    19.8400       126
    20.0600        96
    20.2800        50
    20.5000        50
    20.7200        68
    20.9400        46
    21.1600        62
    21.3800        64
    21.6000        44
    21.8200        38
    22.0400        40
    22.2600        52
    22.4800        52
    22.7000        48
    22.9200        52
    23.1400        38
    23.3600        32
    23.5800        62
    23.8000        56
    24.0200        74
    24.2400        48
    24.4600        96
    24.6800       186
    24.9000        48
    25.1200        60
    25.3400        56
    25.5600        38
    25.7800        44
    26.0000        50
    26.2200        40
    26.4400        40
    26.6600        32
    26.8800        36
    27.1000        68
    27.3200       110
    27.5400       176
    27.7600       106
    27.9800       624
    28.2000       356
    28.4200        76
    28.6400        84
    28.8600       238
    29.0800       218
    29.3000        50
    29.5200        44
    29.7400        42
    29.9600        72
    30.1800        30
    30.4000        54
    30.6200        80
    30.8400        64
    31.0600        50
    31.2800       130
    31.5000        42
    31.7200        34
    31.9400        46
    32.1600        48
    32.3800        42
    32.6000        34
    32.8200        34
    33.0400        50
    33.2600        44
    33.4800        44
    33.7000        30
    33.9200        30
    34.1400        40
    34.3600        72
    34.5800        76
    34.8000        76
    35.0200        52
    35.2400        36
    35.4600        46
    35.6800       114
    35.9000       236
    36.1200        38
    36.3400        42
    36.5600        40
    36.7800        34
    37.0000        40
    37.2200        68
    37.4400       112
    37.6600        44
    37.8800        46
    38.1000        50
    38.3200        28
    38.5400        34
    38.7600        36
    38.9800        28
    39.2000        52
    39.4200        86
    39.6400        44
    39.8600        40
    40.0800        38
    40.3000        40
    40.5200        44
    40.7400        32
    40.9600        44
    41.1800        40
    41.4000        40
    41.6200        34
    41.8400        36
    42.0600        40
    42.2800        42
    42.5000        34
    42.7200        20
    42.9400        24
    43.1600        56
    43.3800        80
    43.6000        78
    43.8200        54
    44.0400        40
    44.2600        38
    44.4800        80
    44.7000        34
    44.9200        76
    45.1400        58
    45.3600        58
    45.5800        76
    45.8000        50
    46.0200        38
    46.2400        34
    46.4600        36
    46.6800        48
    46.9000        76
    47.1200        92
    47.3400        46
    47.5600        42
    47.7800        58
    48.0000        34
    48.2200        56
    48.4400        80
    48.6600        82
    48.8800        48
    49.1000        78
    49.3200       256
    49.5400        60
    49.7600        40
    49.9800        42
    50.2000        46
    50.4200        50
    50.6400        50
    50.8600        40
    51.0800        32
    51.3000        40
    51.5200        42
    51.7400        52
    51.9600        56
    52.1800       148
    52.4000        76
    52.6200        50
    52.8400       124
    53.0600        80
    53.2800        46
    53.5000        40
    53.7200        38
    53.9400        32
    54.1600        38
    54.3800        44
    54.6000        40
    54.8200        66
    55.0400       118
    55.2600        56
    55.4800        46
    55.7000        64
    55.9200       134
    56.1400        52
    56.3600        68
    56.5800        52
    56.8000        92
    57.0200        46
    57.2400        28
    57.4600        36
    57.6800        48
    57.9000        66
    58.1200       108
    58.3400        56
    58.5600        44
    58.7800        36
    59.0000        28
    59.2200        46
    59.4400        46
    59.6600        44
    59.8800        34
    60.1000        50
    60.3200        50
    60.5400        28
    60.7600        36
    60.9800        40
    61.2000        32
    61.4200        34
    61.6400        40
    61.8600        48
    62.0800        56
    62.3000        54
    62.5200        66
    62.7400        36
    62.9600        36
    63.1800        30
    63.4000        46
    63.6200        32
    63.8400        58
    64.0600        42
    64.2800        50
    64.5000        34
    64.7200        34
    64.9400        60
    65.0000        60