File: sl1/usgs/library06/DESCRIPT/new_xrd_results_to_be_added/Rhonda_Driscoll_xrd_runs/GDS2---Clinoptilolite.txt
/////////////////////////////////////////////////////////////////////////////////
/// Profile Data Ascii Dump (XRD)                                             ///
/////////////////////////////////////////////////////////////////////////////////

  Group     : Swayze
  Data      : GDS2
  File Name : GDS2.RAW

# Profile Datafile
          comment             = Clinoptilolite
          date & time         = 08-03-24 06:47:01

# Measurement Condition
    X-ray tube
          target              = Cu
          voltage             = 40.0 (kV)
          current             = 30.0 (mA)
    Slits
          divergence slit     = 2.00000 (deg)
          scatter slit        = 2.00000 (deg)
          receiving slit      = 0.15000 (mm)
    Scanning
          drive axis          = Theta-2Theta
          scan range          =    4.000 -   65.000
          scan mode           = Continuous Scan
          scan speed          =   2.0000 (deg/min)
          sampling pitch      =   0.0200 (deg)
          preset time         =   0.60 (sec)

# Data      [ Total No. = 3051 ]
  <2Theta>   <   I   >
     4.0000       182
     4.2200       180
     4.4400       168
     4.6600       182
     4.8800       186
     5.1000       162
     5.3200       168
     5.5400       166
     5.7600       160
     5.9800       184
     6.2000       160
     6.4200       128
     6.6400       150
     6.8600       136
     7.0800       138
     7.3000       144
     7.5200       142
     7.7400       112
     7.9600        96
     8.1800       134
     8.4000       126
     8.6200       124
     8.8400       118
     9.0600       132
     9.2800       162
     9.5000       196
     9.7200       534
     9.9400       234
    10.1600       142
    10.3800       112
    10.6000       130
    10.8200       148
    11.0400       364
    11.2600       128
    11.4800        90
    11.7000        82
    11.9200        86
    12.1400        98
    12.3600       100
    12.5800        88
    12.8000       134
    13.0200       170
    13.2400       104
    13.4600        90
    13.6800        72
    13.9000        80
    14.1200        72
    14.3400        72
    14.5600        70
    14.7800       114
    15.0000        66
    15.2200        68
    15.4400        62
    15.6600        70
    15.8800        76
    16.1000        72
    16.3200        68
    16.5400        98
    16.7600       132
    16.9800       120
    17.2000       358
    17.4200       122
    17.6400        84
    17.8600        68
    18.0800        64
    18.3000        84
    18.5200        72
    18.7400        98
    18.9600       184
    19.1800        86
    19.4000        86
    19.6200        86
    19.8400       108
    20.0600       100
    20.2800       160
    20.5000        98
    20.7200        78
    20.9400        92
    21.1600       106
    21.3800       146
    21.6000       148
    21.8200       172
    22.0400       260
    22.2600       962
    22.4800       658
    22.7000       546
    22.9200       190
    23.1400       150
    23.3600        94
    23.5800        98
    23.8000       142
    24.0200        98
    24.2400        84
    24.4600        72
    24.6800        72
    24.9000       226
    25.1200       126
    25.3400        88
    25.5600       166
    25.7800       200
    26.0000       380
    26.2200       302
    26.4400        90
    26.6600       174
    26.8800       116
    27.1000        80
    27.3200        82
    27.5400        98
    27.7600       142
    27.9800       290
    28.2000       238
    28.4200       168
    28.6400       212
    28.8600       210
    29.0800       160
    29.3000       106
    29.5200       148
    29.7400       294
    29.9600       512
    30.1800       350
    30.4000       120
    30.6200        74
    30.8400        76
    31.0600        70
    31.2800        82
    31.5000        64
    31.7200       120
    31.9400       442
    32.1600       114
    32.3800        92
    32.6000       162
    32.8200       214
    33.0400       108
    33.2600        86
    33.4800       120
    33.7000        62
    33.9200        58
    34.1400        58
    34.3600        72
    34.5800        70
    34.8000        90
    35.0200       140
    35.2400       104
    35.4600       130
    35.6800       116
    35.9000        94
    36.1200       104
    36.3400        74
    36.5600       130
    36.7800       202
    37.0000       176
    37.2200        98
    37.4400        66
    37.6600        74
    37.8800       100
    38.1000        82
    38.3200        68
    38.5400        68
    38.7600        60
    38.9800        58
    39.2000        64
    39.4200        76
    39.6400        70
    39.8600        62
    40.0800        58
    40.3000        58
    40.5200        54
    40.7400        66
    40.9600        64
    41.1800        88
    41.4000        68
    41.6200        42
    41.8400        70
    42.0600        68
    42.2800        72
    42.5000        60
    42.7200        72
    42.9400        76
    43.1600        94
    43.3800        76
    43.6000        66
    43.8200        84
    44.0400        84
    44.2600        58
    44.4800        72
    44.7000        78
    44.9200       132
    45.1400        76
    45.3600        54
    45.5800        60
    45.8000        66
    46.0200        60
    46.2400       124
    46.4600        86
    46.6800        94
    46.9000        74
    47.1200        80
    47.3400        54
    47.5600        54
    47.7800        54
    48.0000        50
    48.2200        44
    48.4400        46
    48.6600        44
    48.8800        70
    49.1000        72
    49.3200        44
    49.5400        60
    49.7600        62
    49.9800        74
    50.2000        58
    50.4200        58
    50.6400        50
    50.8600        62
    51.0800        80
    51.3000        82
    51.5200        94
    51.7400       114
    51.9600        84
    52.1800        76
    52.4000        86
    52.6200        76
    52.8400        74
    53.0600        90
    53.2800        76
    53.5000        62
    53.7200        66
    53.9400        76
    54.1600       102
    54.3800        88
    54.6000        60
    54.8200        50
    55.0400        68
    55.2600        76
    55.4800        60
    55.7000        82
    55.9200        60
    56.1400        68
    56.3600        70
    56.5800        58
    56.8000        60
    57.0200        60
    57.2400        56
    57.4600        44
    57.6800        74
    57.9000        68
    58.1200        84
    58.3400        66
    58.5600        46
    58.7800        48
    59.0000        56
    59.2200        78
    59.4400        64
    59.6600        46
    59.8800        54
    60.1000        72
    60.3200        62
    60.5400        50
    60.7600        74
    60.9800        64
    61.2000        64
    61.4200        58
    61.6400        66
    61.8600        46
    62.0800        64
    62.3000        68
    62.5200        80
    62.7400        90
    62.9600        74
    63.1800        60
    63.4000        46
    63.6200        58
    63.8400        76
    64.0600        84
    64.2800        88
    64.5000        60
    64.7200        70
    64.9400        98
    65.0000        88