File: sl1/usgs/library06/DESCRIPT/new_xrd_results_to_be_added/Rhonda_Driscoll_xrd_runs/GDS209---SynAluniteH30-200C.txt
/////////////////////////////////////////////////////////////////////////////////
/// Profile Data Ascii Dump (XRD)                                             ///
/////////////////////////////////////////////////////////////////////////////////

  Group     : Swayze
  Data      : GDS209
  File Name : GDS209.RAW

# Profile Datafile
          comment             = SynAluniteH30-200C
          date & time         = 08-03-27 07:16:41

# Measurement Condition
    X-ray tube
          target              = Cu
          voltage             = 40.0 (kV)
          current             = 30.0 (mA)
    Slits
          divergence slit     = 2.00000 (deg)
          scatter slit        = 2.00000 (deg)
          receiving slit      = 0.15000 (mm)
    Scanning
          drive axis          = Theta-2Theta
          scan range          =    4.000 -   65.000
          scan mode           = Continuous Scan
          scan speed          =   2.0000 (deg/min)
          sampling pitch      =   0.0200 (deg)
          preset time         =   0.60 (sec)

# Data      [ Total No. = 3051 ]
  <2Theta>   <   I   >
     4.0000       198
     4.2200       154
     4.4400       170
     4.6600       152
     4.8800       178
     5.1000       168
     5.3200       144
     5.5400       170
     5.7600       136
     5.9800       152
     6.2000       130
     6.4200       130
     6.6400       118
     6.8600       144
     7.0800       114
     7.3000       114
     7.5200       116
     7.7400       132
     7.9600       122
     8.1800       120
     8.4000       108
     8.6200        98
     8.8400       110
     9.0600       112
     9.2800       102
     9.5000       108
     9.7200        98
     9.9400       132
    10.1600       110
    10.3800       106
    10.6000        80
    10.8200        92
    11.0400        98
    11.2600        84
    11.4800        86
    11.7000        68
    11.9200        82
    12.1400        94
    12.3600        78
    12.5800        70
    12.8000        82
    13.0200        74
    13.2400        68
    13.4600        72
    13.6800        70
    13.9000        60
    14.1200        88
    14.3400        66
    14.5600        64
    14.7800        78
    15.0000        66
    15.2200        96
    15.4400       188
    15.6600        74
    15.8800        62
    16.1000        54
    16.3200        64
    16.5400        66
    16.7600        60
    16.9800        60
    17.2000        68
    17.4200       102
    17.6400       274
    17.8600      1016
    18.0800       146
    18.3000        64
    18.5200        50
    18.7400        68
    18.9600        48
    19.1800        50
    19.4000        32
    19.6200        52
    19.8400        32
    20.0600        48
    20.2800        44
    20.5000        50
    20.7200        48
    20.9400        46
    21.1600        40
    21.3800        30
    21.6000        42
    21.8200        50
    22.0400        38
    22.2600        50
    22.4800        40
    22.7000        52
    22.9200        36
    23.1400        34
    23.3600        46
    23.5800        36
    23.8000        46
    24.0200        54
    24.2400        30
    24.4600        44
    24.6800        42
    24.9000        44
    25.1200        86
    25.3400       346
    25.5600        64
    25.7800        38
    26.0000        30
    26.2200        26
    26.4400        28
    26.6600        28
    26.8800        36
    27.1000        50
    27.3200        22
    27.5400        28
    27.7600        22
    27.9800        42
    28.2000        34
    28.4200        42
    28.6400        46
    28.8600        36
    29.0800        40
    29.3000        60
    29.5200       156
    29.7400      1308
    29.9600      1004
    30.1800       104
    30.4000        36
    30.6200        30
    30.8400        38
    31.0600        50
    31.2800       110
    31.5000        48
    31.7200        38
    31.9400        28
    32.1600        32
    32.3800        22
    32.6000        24
    32.8200        30
    33.0400        28
    33.2600        24
    33.4800        28
    33.7000        26
    33.9200        28
    34.1400        22
    34.3600        28
    34.5800        30
    34.8000        30
    35.0200        32
    35.2400        32
    35.4600        28
    35.6800        34
    35.9000        26
    36.1200        34
    36.3400        32
    36.5600        28
    36.7800        24
    37.0000        28
    37.2200        26
    37.4400        18
    37.6600        26
    37.8800        32
    38.1000        20
    38.3200        26
    38.5400        36
    38.7600        14
    38.9800        32
    39.2000        30
    39.4200       114
    39.6400       428
    39.8600       118
    40.0800        52
    40.3000        30
    40.5200        58
    40.7400        56
    40.9600        28
    41.1800        26
    41.4000        16
    41.6200        22
    41.8400        14
    42.0600        24
    42.2800        26
    42.5000        22
    42.7200        34
    42.9400        22
    43.1600        22
    43.3800        24
    43.6000        28
    43.8200        26
    44.0400        20
    44.2600        24
    44.4800        30
    44.7000        30
    44.9200        24
    45.1400        26
    45.3600        34
    45.5800        18
    45.8000        26
    46.0200        24
    46.2400        32
    46.4600        20
    46.6800        26
    46.9000        26
    47.1200        28
    47.3400        52
    47.5600       474
    47.7800       292
    48.0000        52
    48.2200        36
    48.4400        26
    48.6600        28
    48.8800        24
    49.1000        30
    49.3200        24
    49.5400        16
    49.7600        26
    49.9800        22
    50.2000        36
    50.4200        30
    50.6400        32
    50.8600        26
    51.0800        22
    51.3000        26
    51.5200        14
    51.7400        38
    51.9600        84
    52.1800       296
    52.4000        56
    52.6200        30
    52.8400        28
    53.0600        14
    53.2800        22
    53.5000        26
    53.7200        22
    53.9400        24
    54.1600        24
    54.3800        24
    54.6000        42
    54.8200        32
    55.0400        20
    55.2600        24
    55.4800        74
    55.7000        76
    55.9200        20
    56.1400        18
    56.3600        24
    56.5800        38
    56.8000        20
    57.0200        26
    57.2400        22
    57.4600        22
    57.6800        32
    57.9000        20
    58.1200        20
    58.3400        16
    58.5600        28
    58.7800        68
    59.0000        82
    59.2200        34
    59.4400        26
    59.6600        18
    59.8800        30
    60.1000        18
    60.3200        34
    60.5400        18
    60.7600        22
    60.9800        20
    61.2000        52
    61.4200        54
    61.6400        36
    61.8600        46
    62.0800       274
    62.3000       158
    62.5200        48
    62.7400        36
    62.9600        34
    63.1800        30
    63.4000        34
    63.6200        22
    63.8400        28
    64.0600        32
    64.2800        28
    64.5000        22
    64.7200        18
    64.9400        24
    65.0000        34