File: sl1/usgs/library06/DESCRIPT/new_xrd_results_to_be_added/Rhonda_Driscoll_xrd_runs/GDS33---Europium-Oxide.txt
/////////////////////////////////////////////////////////////////////////////////
/// Profile Data Ascii Dump (XRD)                                             ///
/////////////////////////////////////////////////////////////////////////////////

  Group     : Swayze
  Data      : GDS33
  File Name : GDS33.RAW

# Profile Datafile
          comment             = Europium Oxide
          date & time         = 08-03-25 06:53:08

# Measurement Condition
    X-ray tube
          target              = Cu
          voltage             = 40.0 (kV)
          current             = 30.0 (mA)
    Slits
          divergence slit     = 2.00000 (deg)
          scatter slit        = 2.00000 (deg)
          receiving slit      = 0.15000 (mm)
    Scanning
          drive axis          = Theta-2Theta
          scan range          =    4.000 -   65.000
          scan mode           = Continuous Scan
          scan speed          =   2.0000 (deg/min)
          sampling pitch      =   0.0200 (deg)
          preset time         =   0.60 (sec)

# Data      [ Total No. = 3051 ]
  <2Theta>   <   I   >
     4.0000       174
     4.2200       176
     4.4400       176
     4.6600       138
     4.8800       152
     5.1000       160
     5.3200       162
     5.5400       146
     5.7600       138
     5.9800       126
     6.2000       148
     6.4200       130
     6.6400       112
     6.8600        92
     7.0800       136
     7.3000       100
     7.5200       126
     7.7400       118
     7.9600       104
     8.1800       108
     8.4000        96
     8.6200       100
     8.8400       108
     9.0600       114
     9.2800        90
     9.5000       100
     9.7200       104
     9.9400        82
    10.1600       110
    10.3800        90
    10.6000        86
    10.8200        86
    11.0400       108
    11.2600        86
    11.4800        88
    11.7000        56
    11.9200        74
    12.1400        58
    12.3600        72
    12.5800        42
    12.8000        72
    13.0200        66
    13.2400        60
    13.4600        66
    13.6800        68
    13.9000        72
    14.1200        70
    14.3400        68
    14.5600        70
    14.7800        62
    15.0000        78
    15.2200        68
    15.4400        68
    15.6600        64
    15.8800        64
    16.1000        60
    16.3200        60
    16.5400        48
    16.7600        54
    16.9800        52
    17.2000        50
    17.4200        52
    17.6400        54
    17.8600        44
    18.0800        52
    18.3000        44
    18.5200        54
    18.7400        54
    18.9600        50
    19.1800        52
    19.4000        50
    19.6200        54
    19.8400        78
    20.0600        66
    20.2800        60
    20.5000        46
    20.7200        60
    20.9400        54
    21.1600        58
    21.3800        54
    21.6000        50
    21.8200        60
    22.0400        64
    22.2600        66
    22.4800        48
    22.7000        44
    22.9200        46
    23.1400        46
    23.3600        30
    23.5800        42
    23.8000        32
    24.0200        48
    24.2400        44
    24.4600        42
    24.6800        34
    24.9000        30
    25.1200        42
    25.3400        42
    25.5600        42
    25.7800        36
    26.0000        32
    26.2200        30
    26.4400        48
    26.6600        56
    26.8800        72
    27.1000       116
    27.3200       134
    27.5400       146
    27.7600       134
    27.9800       170
    28.2000       378
    28.4200       594
    28.6400       152
    28.8600        78
    29.0800        60
    29.3000        58
    29.5200        50
    29.7400        52
    29.9600        66
    30.1800        62
    30.4000        70
    30.6200        56
    30.8400        58
    31.0600        54
    31.2800        68
    31.5000        92
    31.7200       112
    31.9400       100
    32.1600       108
    32.3800        74
    32.6000       112
    32.8200       252
    33.0400       128
    33.2600        42
    33.4800        44
    33.7000        30
    33.9200        26
    34.1400        24
    34.3600        40
    34.5800        32
    34.8000        52
    35.0200        62
    35.2400        34
    35.4600        40
    35.6800        30
    35.9000        34
    36.1200        32
    36.3400        38
    36.5600        38
    36.7800        22
    37.0000        32
    37.2200        28
    37.4400        26
    37.6600        26
    37.8800        36
    38.1000        32
    38.3200        46
    38.5400        48
    38.7600        84
    38.9800        82
    39.2000        60
    39.4200        52
    39.6400        62
    39.8600        54
    40.0800        38
    40.3000        26
    40.5200        30
    40.7400        24
    40.9600        36
    41.1800        36
    41.4000        42
    41.6200        34
    41.8400        42
    42.0600        54
    42.2800        68
    42.5000        46
    42.7200        26
    42.9400        32
    43.1600        26
    43.3800        24
    43.6000        28
    43.8200        40
    44.0400        44
    44.2600        34
    44.4800        40
    44.7000        32
    44.9200        44
    45.1400        58
    45.3600        68
    45.5800        68
    45.8000        62
    46.0200        50
    46.2400        38
    46.4600        56
    46.6800        56
    46.9000        80
    47.1200       180
    47.3400       188
    47.5600        76
    47.7800        60
    48.0000        52
    48.2200        48
    48.4400        52
    48.6600        48
    48.8800        54
    49.1000        42
    49.3200        44
    49.5400        44
    49.7600        34
    49.9800        38
    50.2000        60
    50.4200        44
    50.6400        42
    50.8600        40
    51.0800        54
    51.3000        44
    51.5200        60
    51.7400        74
    51.9600        62
    52.1800        58
    52.4000        40
    52.6200        46
    52.8400        24
    53.0600        46
    53.2800        48
    53.5000        36
    53.7200        50
    53.9400        66
    54.1600        50
    54.3800        48
    54.6000        68
    54.8200        56
    55.0400        54
    55.2600        46
    55.4800        60
    55.7000        72
    55.9200       130
    56.1400       154
    56.3600        80
    56.5800        50
    56.8000        34
    57.0200        40
    57.2400        42
    57.4600        68
    57.6800        40
    57.9000        44
    58.1200        44
    58.3400        44
    58.5600        46
    58.7800        64
    59.0000        46
    59.2200        56
    59.4400        36
    59.6600        38
    59.8800        40
    60.1000        44
    60.3200        52
    60.5400        32
    60.7600        36
    60.9800        42
    61.2000        28
    61.4200        38
    61.6400        36
    61.8600        32
    62.0800        28
    62.3000        28
    62.5200        38
    62.7400        32
    62.9600        34
    63.1800        26
    63.4000        30
    63.6200        28
    63.8400        20
    64.0600        30
    64.2800        42
    64.5000        22
    64.7200        28
    64.9400        38
    65.0000        28