File: sl1/usgs/library06/DESCRIPT/new_xrd_results_to_be_added/Rhonda_Driscoll_xrd_runs/GDS39B---Scapolite-grp..txt
/////////////////////////////////////////////////////////////////////////////////
/// Profile Data Ascii Dump (XRD)                                             ///
/////////////////////////////////////////////////////////////////////////////////

  Group     : Swayze
  Data      : GDS39B
  File Name : GDS39B.RAW

# Profile Datafile
          comment             = Scapolite grp.
          date & time         = 08-03-25 07:55:02

# Measurement Condition
    X-ray tube
          target              = Cu
          voltage             = 40.0 (kV)
          current             = 30.0 (mA)
    Slits
          divergence slit     = 2.00000 (deg)
          scatter slit        = 2.00000 (deg)
          receiving slit      = 0.15000 (mm)
    Scanning
          drive axis          = Theta-2Theta
          scan range          =    4.000 -   65.000
          scan mode           = Continuous Scan
          scan speed          =   2.0000 (deg/min)
          sampling pitch      =   0.0200 (deg)
          preset time         =   0.60 (sec)

# Data      [ Total No. = 3051 ]
  <2Theta>   <   I   >
     4.0000       170
     4.2200       162
     4.4400       182
     4.6600       158
     4.8800       146
     5.1000       160
     5.3200       144
     5.5400       196
     5.7600       184
     5.9800       160
     6.2000       140
     6.4200       128
     6.6400       128
     6.8600       130
     7.0800       114
     7.3000       102
     7.5200        98
     7.7400       120
     7.9600       116
     8.1800       116
     8.4000       104
     8.6200       106
     8.8400       100
     9.0600       108
     9.2800       106
     9.5000        96
     9.7200        98
     9.9400       130
    10.1600       112
    10.3800       108
    10.6000       108
    10.8200       104
    11.0400        86
    11.2600       102
    11.4800        84
    11.7000        96
    11.9200        90
    12.1400        80
    12.3600        76
    12.5800        84
    12.8000        74
    13.0200        74
    13.2400        76
    13.4600        94
    13.6800       176
    13.9000        58
    14.1200        84
    14.3400        96
    14.5600       212
    14.7800        52
    15.0000        62
    15.2200        60
    15.4400        68
    15.6600        60
    15.8800        50
    16.1000        68
    16.3200        56
    16.5400        50
    16.7600        50
    16.9800        58
    17.2000        56
    17.4200        64
    17.6400        48
    17.8600        58
    18.0800        48
    18.3000        52
    18.5200        50
    18.7400        64
    18.9600        52
    19.1800        48
    19.4000        52
    19.6200        60
    19.8400        56
    20.0600       100
    20.2800        40
    20.5000        60
    20.7200       202
    20.9400        56
    21.1600        38
    21.3800        48
    21.6000        44
    21.8200        60
    22.0400        48
    22.2600        48
    22.4800        48
    22.7000        46
    22.9200        74
    23.1400       664
    23.3600        76
    23.5800        62
    23.8000        60
    24.0200        42
    24.2400        44
    24.4600        70
    24.6800        84
    24.9000       856
    25.1200        66
    25.3400       230
    25.5600      1576
    25.7800       114
    26.0000        54
    26.2200        40
    26.4400        40
    26.6600        44
    26.8800        42
    27.1000        34
    27.3200        30
    27.5400        42
    27.7600        30
    27.9800        38
    28.2000        40
    28.4200        36
    28.6400        68
    28.8600       228
    29.0800       876
    29.3000       160
    29.5200       520
    29.7400        46
    29.9600        36
    30.1800        32
    30.4000        36
    30.6200        40
    30.8400        28
    31.0600        44
    31.2800       154
    31.5000        54
    31.7200        32
    31.9400        34
    32.1600        26
    32.3800        48
    32.6000       202
    32.8200        74
    33.0400       254
    33.2600       226
    33.4800        36
    33.7000        26
    33.9200        18
    34.1400        30
    34.3600        22
    34.5800        28
    34.8000        34
    35.0200        36
    35.2400        34
    35.4600        34
    35.6800        30
    35.9000        30
    36.1200        32
    36.3400        30
    36.5600        28
    36.7800        16
    37.0000        28
    37.2200        32
    37.4400        24
    37.6600        32
    37.8800       132
    38.1000        44
    38.3200        32
    38.5400        26
    38.7600        44
    38.9800       218
    39.2000        72
    39.4200        56
    39.6400        36
    39.8600        36
    40.0800        22
    40.3000        40
    40.5200        44
    40.7400        40
    40.9600        60
    41.1800        30
    41.4000        30
    41.6200        46
    41.8400       214
    42.0600       200
    42.2800        54
    42.5000        30
    42.7200        38
    42.9400        40
    43.1600        32
    43.3800        34
    43.6000        98
    43.8200        34
    44.0400        34
    44.2600        30
    44.4800        46
    44.7000        92
    44.9200       152
    45.1400        64
    45.3600        28
    45.5800        34
    45.8000        32
    46.0200        20
    46.2400        34
    46.4600        24
    46.6800        58
    46.9000        44
    47.1200       196
    47.3400       702
    47.5600       428
    47.7800       240
    48.0000        76
    48.2200        40
    48.4400        42
    48.6600        34
    48.8800        30
    49.1000        32
    49.3200        34
    49.5400        30
    49.7600        54
    49.9800        88
    50.2000        68
    50.4200        30
    50.6400        26
    50.8600        32
    51.0800        30
    51.3000        22
    51.5200        24
    51.7400        36
    51.9600        34
    52.1800        88
    52.4000        46
    52.6200        58
    52.8400        38
    53.0600        40
    53.2800        40
    53.5000       114
    53.7200        52
    53.9400        32
    54.1600        26
    54.3800        34
    54.6000        60
    54.8200        38
    55.0400        24
    55.2600        26
    55.4800        30
    55.7000        32
    55.9200        30
    56.1400        24
    56.3600        32
    56.5800        48
    56.8000        86
    57.0200        46
    57.2400       114
    57.4600        42
    57.6800        22
    57.9000        32
    58.1200        24
    58.3400        26
    58.5600        32
    58.7800        28
    59.0000       194
    59.2200       114
    59.4400       102
    59.6600        38
    59.8800        30
    60.1000        34
    60.3200        26
    60.5400        20
    60.7600        32
    60.9800        50
    61.2000        96
    61.4200        36
    61.6400        30
    61.8600        24
    62.0800        44
    62.3000        26
    62.5200        72
    62.7400        86
    62.9600        38
    63.1800        80
    63.4000       182
    63.6200       146
    63.8400        38
    64.0600        32
    64.2800        32
    64.5000        22
    64.7200        24
    64.9400        32
    65.0000        40