File: sl1/usgs/library06/DESCRIPT/new_xrd_results_to_be_added/Rhonda_Driscoll_xrd_runs/GDS3---Heulandite.txt
/////////////////////////////////////////////////////////////////////////////////
/// Profile Data Ascii Dump (XRD)                                             ///
/////////////////////////////////////////////////////////////////////////////////

  Group     : Swayze
  Data      : GDS3
  File Name : GDS3.RAW

# Profile Datafile
          comment             = Heulandite
          date & time         = 08-03-25 07:24:04

# Measurement Condition
    X-ray tube
          target              = Cu
          voltage             = 40.0 (kV)
          current             = 30.0 (mA)
    Slits
          divergence slit     = 2.00000 (deg)
          scatter slit        = 2.00000 (deg)
          receiving slit      = 0.15000 (mm)
    Scanning
          drive axis          = Theta-2Theta
          scan range          =    4.000 -   65.000
          scan mode           = Continuous Scan
          scan speed          =   2.0000 (deg/min)
          sampling pitch      =   0.0200 (deg)
          preset time         =   0.60 (sec)

# Data      [ Total No. = 3051 ]
  <2Theta>   <   I   >
     4.0000       186
     4.2200       180
     4.4400       162
     4.6600       166
     4.8800       148
     5.1000       178
     5.3200       156
     5.5400       158
     5.7600       130
     5.9800       164
     6.2000       140
     6.4200       132
     6.6400       118
     6.8600       114
     7.0800       140
     7.3000       106
     7.5200        96
     7.7400       110
     7.9600       124
     8.1800       106
     8.4000       138
     8.6200       118
     8.8400       132
     9.0600       138
     9.2800       176
     9.5000       516
     9.7200      5548
     9.9400       482
    10.1600       108
    10.3800       110
    10.6000       110
    10.8200       102
    11.0400       120
    11.2600        92
    11.4800        94
    11.7000        74
    11.9200        74
    12.1400        82
    12.3600        74
    12.5800        70
    12.8000        98
    13.0200        90
    13.2400       102
    13.4600        70
    13.6800        56
    13.9000        78
    14.1200        84
    14.3400        74
    14.5600        66
    14.7800        70
    15.0000        70
    15.2200        60
    15.4400        78
    15.6600       112
    15.8800        88
    16.1000        72
    16.3200        86
    16.5400       112
    16.7600       152
    16.9800        76
    17.2000       142
    17.4200       110
    17.6400        54
    17.8600        64
    18.0800        56
    18.3000        62
    18.5200        58
    18.7400       100
    18.9600       280
    19.1800        70
    19.4000        78
    19.6200       134
    19.8400       136
    20.0600        78
    20.2800        68
    20.5000        62
    20.7200        66
    20.9400        56
    21.1600        54
    21.3800        56
    21.6000        58
    21.8200        70
    22.0400       152
    22.2600       506
    22.4800       228
    22.7000       476
    22.9200        76
    23.1400        72
    23.3600        62
    23.5800        90
    23.8000       102
    24.0200        50
    24.2400        86
    24.4600        72
    24.6800        84
    24.9000        78
    25.1200        70
    25.3400       104
    25.5600       112
    25.7800       142
    26.0000       140
    26.2200        78
    26.4400        48
    26.6600        84
    26.8800        58
    27.1000        50
    27.3200        42
    27.5400        56
    27.7600        74
    27.9800       152
    28.2000        74
    28.4200       248
    28.6400        90
    28.8600        90
    29.0800        78
    29.3000        86
    29.5200       198
    29.7400       584
    29.9600      1244
    30.1800       284
    30.4000        60
    30.6200        46
    30.8400        42
    31.0600        56
    31.2800        54
    31.5000        70
    31.7200       152
    31.9400       164
    32.1600        68
    32.3800        76
    32.6000       302
    32.8200       374
    33.0400        86
    33.2600        52
    33.4800        74
    33.7000        40
    33.9200        44
    34.1400        36
    34.3600        38
    34.5800        48
    34.8000        46
    35.0200        64
    35.2400        98
    35.4600       238
    35.6800       130
    35.9000        82
    36.1200        84
    36.3400        94
    36.5600        84
    36.7800       116
    37.0000        98
    37.2200        52
    37.4400        52
    37.6600        74
    37.8800        58
    38.1000        60
    38.3200        52
    38.5400        54
    38.7600        84
    38.9800        92
    39.2000        60
    39.4200        74
    39.6400        74
    39.8600        62
    40.0800       158
    40.3000       228
    40.5200        64
    40.7400        44
    40.9600        56
    41.1800        64
    41.4000        40
    41.6200        60
    41.8400        96
    42.0600        86
    42.2800        76
    42.5000       112
    42.7200        54
    42.9400        44
    43.1600        98
    43.3800        60
    43.6000        76
    43.8200        60
    44.0400        50
    44.2600        38
    44.4800        60
    44.7000        88
    44.9200        60
    45.1400        66
    45.3600        64
    45.5800        52
    45.8000       160
    46.0200       178
    46.2400        94
    46.4600        56
    46.6800        50
    46.9000        58
    47.1200        96
    47.3400       116
    47.5600        58
    47.7800        48
    48.0000        44
    48.2200        46
    48.4400        40
    48.6600        64
    48.8800        96
    49.1000        62
    49.3200        40
    49.5400        46
    49.7600        68
    49.9800        62
    50.2000        60
    50.4200        58
    50.6400       110
    50.8600       442
    51.0800       588
    51.3000       156
    51.5200       110
    51.7400        82
    51.9600        70
    52.1800        60
    52.4000        76
    52.6200       104
    52.8400       164
    53.0600       194
    53.2800        66
    53.5000        50
    53.7200        56
    53.9400        78
    54.1600        52
    54.3800        50
    54.6000        56
    54.8200        40
    55.0400        56
    55.2600        40
    55.4800        88
    55.7000        76
    55.9200        54
    56.1400        72
    56.3600        82
    56.5800        52
    56.8000        62
    57.0200        46
    57.2400        50
    57.4600        36
    57.6800        62
    57.9000        68
    58.1200        52
    58.3400        48
    58.5600        54
    58.7800        44
    59.0000        66
    59.2200        70
    59.4400        64
    59.6600        50
    59.8800        48
    60.1000        42
    60.3200        38
    60.5400        62
    60.7600        70
    60.9800        42
    61.2000        38
    61.4200        34
    61.6400        50
    61.8600        62
    62.0800       176
    62.3000       238
    62.5200       172
    62.7400        78
    62.9600        68
    63.1800        72
    63.4000        80
    63.6200        80
    63.8400        60
    64.0600        64
    64.2800        46
    64.5000        54
    64.7200        88
    64.9400        72
    65.0000        66