File: sl1/usgs/library06/DESCRIPT/new_xrd_results_to_be_added/Rhonda_Driscoll_xrd_runs/GDS38B---Scapolite.txt
/////////////////////////////////////////////////////////////////////////////////
/// Profile Data Ascii Dump (XRD)                                             ///
/////////////////////////////////////////////////////////////////////////////////

  Group     : Swayze
  Data      : GDS38B
  File Name : GDS38B.RAW

# Profile Datafile
          comment             = Scapolite
          date & time         = 08-03-24 06:16:03

# Measurement Condition
    X-ray tube
          target              = Cu
          voltage             = 40.0 (kV)
          current             = 30.0 (mA)
    Slits
          divergence slit     = 2.00000 (deg)
          scatter slit        = 2.00000 (deg)
          receiving slit      = 0.15000 (mm)
    Scanning
          drive axis          = Theta-2Theta
          scan range          =    4.000 -   65.000
          scan mode           = Continuous Scan
          scan speed          =   2.0000 (deg/min)
          sampling pitch      =   0.0200 (deg)
          preset time         =   0.60 (sec)

# Data      [ Total No. = 3051 ]
  <2Theta>   <   I   >
     4.0000       200
     4.2200       184
     4.4400       166
     4.6600       166
     4.8800       156
     5.1000       156
     5.3200       136
     5.5400       166
     5.7600       130
     5.9800       144
     6.2000       150
     6.4200       172
     6.6400       120
     6.8600       128
     7.0800       130
     7.3000       122
     7.5200       124
     7.7400       116
     7.9600       122
     8.1800       132
     8.4000       126
     8.6200       124
     8.8400       130
     9.0600       124
     9.2800       122
     9.5000       120
     9.7200       106
     9.9400       118
    10.1600       148
    10.3800       112
    10.6000        96
    10.8200       100
    11.0400       104
    11.2600       100
    11.4800        90
    11.7000       100
    11.9200       102
    12.1400        82
    12.3600        94
    12.5800        86
    12.8000        88
    13.0200        76
    13.2400        74
    13.4600        88
    13.6800       198
    13.9000        64
    14.1200        64
    14.3400        90
    14.5600       208
    14.7800        76
    15.0000        68
    15.2200        58
    15.4400        62
    15.6600        66
    15.8800        68
    16.1000        68
    16.3200        50
    16.5400        70
    16.7600        58
    16.9800        56
    17.2000        54
    17.4200        62
    17.6400        64
    17.8600        72
    18.0800        72
    18.3000        60
    18.5200        40
    18.7400        68
    18.9600        46
    19.1800        64
    19.4000        56
    19.6200        64
    19.8400        60
    20.0600       106
    20.2800        50
    20.5000        64
    20.7200       154
    20.9400        50
    21.1600        50
    21.3800        54
    21.6000        50
    21.8200        42
    22.0400        48
    22.2600        36
    22.4800        62
    22.7000        46
    22.9200       106
    23.1400       626
    23.3600       164
    23.5800        68
    23.8000        56
    24.0200        62
    24.2400        44
    24.4600        56
    24.6800        88
    24.9000       366
    25.1200        80
    25.3400       222
    25.5600      1728
    25.7800       144
    26.0000        62
    26.2200        56
    26.4400        68
    26.6600        36
    26.8800        44
    27.1000        46
    27.3200        44
    27.5400        38
    27.7600        52
    27.9800        52
    28.2000        54
    28.4200        42
    28.6400        64
    28.8600       188
    29.0800       808
    29.3000       142
    29.5200      1832
    29.7400        68
    29.9600        46
    30.1800        42
    30.4000        46
    30.6200        40
    30.8400        32
    31.0600        30
    31.2800       126
    31.5000       130
    31.7200        48
    31.9400        44
    32.1600        50
    32.3800        36
    32.6000       268
    32.8200       142
    33.0400       344
    33.2600       600
    33.4800        56
    33.7000        28
    33.9200        40
    34.1400        38
    34.3600        32
    34.5800        30
    34.8000        36
    35.0200        44
    35.2400        38
    35.4600        38
    35.6800        36
    35.9000        28
    36.1200        50
    36.3400        24
    36.5600        20
    36.7800        46
    37.0000        28
    37.2200        34
    37.4400        32
    37.6600        32
    37.8800        80
    38.1000        36
    38.3200        26
    38.5400        40
    38.7600        48
    38.9800       256
    39.2000        84
    39.4200        70
    39.6400        46
    39.8600        30
    40.0800        40
    40.3000        40
    40.5200        28
    40.7400        52
    40.9600       114
    41.1800        48
    41.4000        24
    41.6200        40
    41.8400       142
    42.0600       402
    42.2800        86
    42.5000        40
    42.7200        26
    42.9400        46
    43.1600        40
    43.3800        48
    43.6000       214
    43.8200        52
    44.0400        48
    44.2600        28
    44.4800        40
    44.7000       112
    44.9200       154
    45.1400        84
    45.3600        28
    45.5800        34
    45.8000        40
    46.0200        36
    46.2400        34
    46.4600        30
    46.6800        36
    46.9000        30
    47.1200       112
    47.3400       358
    47.5600       440
    47.7800       230
    48.0000       114
    48.2200        38
    48.4400        24
    48.6600        36
    48.8800        24
    49.1000        34
    49.3200        26
    49.5400        30
    49.7600        86
    49.9800        74
    50.2000       140
    50.4200        36
    50.6400        18
    50.8600        26
    51.0800        30
    51.3000        36
    51.5200        28
    51.7400        26
    51.9600        38
    52.1800       104
    52.4000        60
    52.6200        34
    52.8400        36
    53.0600        42
    53.2800        42
    53.5000       222
    53.7200       116
    53.9400        44
    54.1600        28
    54.3800        32
    54.6000        68
    54.8200        58
    55.0400        42
    55.2600        40
    55.4800        24
    55.7000        26
    55.9200        30
    56.1400        40
    56.3600        36
    56.5800        40
    56.8000        62
    57.0200        36
    57.2400       120
    57.4600        58
    57.6800        36
    57.9000        26
    58.1200        60
    58.3400        36
    58.5600        24
    58.7800        40
    59.0000       124
    59.2200       146
    59.4400        68
    59.6600        48
    59.8800        28
    60.1000        32
    60.3200        30
    60.5400        36
    60.7600        22
    60.9800        32
    61.2000       132
    61.4200        56
    61.6400        30
    61.8600        30
    62.0800        42
    62.3000        28
    62.5200        36
    62.7400        54
    62.9600        48
    63.1800       106
    63.4000       128
    63.6200       160
    63.8400        48
    64.0600        48
    64.2800        32
    64.5000        30
    64.7200        34
    64.9400        28
    65.0000        34