File: sl1/usgs/library06/DESCRIPT/new_xrd_results_to_be_added/Rhonda_Driscoll_xrd_runs/GDS37A---Scapolite-grp..txt
/////////////////////////////////////////////////////////////////////////////////
/// Profile Data Ascii Dump (XRD)                                             ///
/////////////////////////////////////////////////////////////////////////////////

  Group     : Swayze
  Data      : GDS37A
  File Name : GDS37A.RAW

# Profile Datafile
          comment             = Scapolite grp
          date & time         = 08-03-27 06:14:48

# Measurement Condition
    X-ray tube
          target              = Cu
          voltage             = 40.0 (kV)
          current             = 30.0 (mA)
    Slits
          divergence slit     = 2.00000 (deg)
          scatter slit        = 2.00000 (deg)
          receiving slit      = 0.15000 (mm)
    Scanning
          drive axis          = Theta-2Theta
          scan range          =    4.000 -   65.000
          scan mode           = Continuous Scan
          scan speed          =   2.0000 (deg/min)
          sampling pitch      =   0.0200 (deg)
          preset time         =   0.60 (sec)

# Data      [ Total No. = 3051 ]
  <2Theta>   <   I   >
     4.0000       208
     4.2200       168
     4.4400       160
     4.6600       156
     4.8800       166
     5.1000       150
     5.3200       160
     5.5400       164
     5.7600       190
     5.9800       146
     6.2000       168
     6.4200       138
     6.6400       126
     6.8600       130
     7.0800       132
     7.3000       110
     7.5200       108
     7.7400       118
     7.9600       116
     8.1800       118
     8.4000       132
     8.6200       114
     8.8400       114
     9.0600       104
     9.2800       124
     9.5000       114
     9.7200       110
     9.9400       110
    10.1600       126
    10.3800       110
    10.6000       102
    10.8200       108
    11.0400        94
    11.2600        94
    11.4800        84
    11.7000        90
    11.9200        94
    12.1400        82
    12.3600        80
    12.5800        70
    12.8000        66
    13.0200        72
    13.2400        80
    13.4600        94
    13.6800       206
    13.9000        84
    14.1200        62
    14.3400        92
    14.5600       154
    14.7800        72
    15.0000        60
    15.2200        54
    15.4400        58
    15.6600        68
    15.8800        54
    16.1000        54
    16.3200        60
    16.5400        58
    16.7600        38
    16.9800        62
    17.2000        50
    17.4200        66
    17.6400        50
    17.8600        50
    18.0800        40
    18.3000        58
    18.5200        58
    18.7400        64
    18.9600        48
    19.1800        52
    19.4000        52
    19.6200        52
    19.8400        52
    20.0600        94
    20.2800        44
    20.5000        56
    20.7200       126
    20.9400        44
    21.1600        38
    21.3800        52
    21.6000        46
    21.8200        62
    22.0400        38
    22.2600        44
    22.4800        46
    22.7000        52
    22.9200        88
    23.1400       682
    23.3600       124
    23.5800        44
    23.8000        58
    24.0200        40
    24.2400        42
    24.4600        70
    24.6800        66
    24.9000       266
    25.1200        92
    25.3400       182
    25.5600      2470
    25.7800       116
    26.0000        48
    26.2200        48
    26.4400        56
    26.6600        46
    26.8800        36
    27.1000        44
    27.3200        40
    27.5400        46
    27.7600        50
    27.9800        50
    28.2000        56
    28.4200        50
    28.6400        72
    28.8600       208
    29.0800      1288
    29.3000       154
    29.5200       864
    29.7400        52
    29.9600        40
    30.1800        30
    30.4000        40
    30.6200        34
    30.8400        42
    31.0600        44
    31.2800       188
    31.5000        92
    31.7200        48
    31.9400        40
    32.1600        38
    32.3800        40
    32.6000       178
    32.8200       116
    33.0400       410
    33.2600       450
    33.4800        48
    33.7000        42
    33.9200        26
    34.1400        24
    34.3600        24
    34.5800        34
    34.8000        26
    35.0200        36
    35.2400        36
    35.4600        32
    35.6800        32
    35.9000        30
    36.1200        44
    36.3400        40
    36.5600        30
    36.7800        40
    37.0000        34
    37.2200        50
    37.4400        40
    37.6600        32
    37.8800        68
    38.1000        36
    38.3200        34
    38.5400        44
    38.7600        38
    38.9800       200
    39.2000       140
    39.4200        58
    39.6400        44
    39.8600        42
    40.0800        26
    40.3000        42
    40.5200        36
    40.7400        46
    40.9600       142
    41.1800        42
    41.4000        38
    41.6200        54
    41.8400        96
    42.0600       274
    42.2800        92
    42.5000        42
    42.7200        36
    42.9400        38
    43.1600        36
    43.3800        38
    43.6000        72
    43.8200        24
    44.0400        36
    44.2600        32
    44.4800        46
    44.7000        68
    44.9200       134
    45.1400        98
    45.3600        24
    45.5800        26
    45.8000        38
    46.0200        38
    46.2400        42
    46.4600        38
    46.6800        44
    46.9000        36
    47.1200        90
    47.3400       496
    47.5600       724
    47.7800       162
    48.0000       116
    48.2200        40
    48.4400        36
    48.6600        30
    48.8800        30
    49.1000        26
    49.3200        24
    49.5400        46
    49.7600       108
    49.9800        50
    50.2000       148
    50.4200        30
    50.6400        32
    50.8600        20
    51.0800        30
    51.3000        36
    51.5200        32
    51.7400        24
    51.9600        36
    52.1800        80
    52.4000        44
    52.6200        44
    52.8400        38
    53.0600        28
    53.2800        36
    53.5000        64
    53.7200        88
    53.9400        44
    54.1600        32
    54.3800        30
    54.6000        92
    54.8200        52
    55.0400        28
    55.2600        28
    55.4800        28
    55.7000        34
    55.9200        34
    56.1400        40
    56.3600        38
    56.5800        26
    56.8000        86
    57.0200        30
    57.2400       132
    57.4600        96
    57.6800        34
    57.9000        22
    58.1200        44
    58.3400        36
    58.5600        48
    58.7800        24
    59.0000       152
    59.2200       188
    59.4400       116
    59.6600        26
    59.8800        32
    60.1000        28
    60.3200        60
    60.5400        44
    60.7600        32
    60.9800        42
    61.2000       122
    61.4200        68
    61.6400        36
    61.8600        28
    62.0800        30
    62.3000        36
    62.5200        48
    62.7400        36
    62.9600        28
    63.1800        68
    63.4000        88
    63.6200       194
    63.8400        54
    64.0600        28
    64.2800        32
    64.5000        38
    64.7200        30
    64.9400        38
    65.0000        26