File: sl1/usgs/library06/DESCRIPT/new_xrd_results_to_be_added/Rhonda_Driscoll_xrd_runs/GDS41re-Nontonite.txt
/////////////////////////////////////////////////////////////////////////////////
/// Profile Data Ascii Dump (XRD)                                             ///
/////////////////////////////////////////////////////////////////////////////////

  Group     : Swayze
  Data      : GDS41-re
  File Name : GDS41-re.RAW

# Profile Datafile
          comment             = Nontronite
          date & time         = 08-04-29 07:12:55

# Measurement Condition
    X-ray tube
          target              = Cu
          voltage             = 40.0 (kV)
          current             = 30.0 (mA)
    Slits
          divergence slit     = 2.00000 (deg)
          scatter slit        = 2.00000 (deg)
          receiving slit      = 0.15000 (mm)
    Scanning
          drive axis          = Theta-2Theta
          scan range          =    4.000 -   65.000
          scan mode           = Continuous Scan
          scan speed          =   2.0000 (deg/min)
          sampling pitch      =   0.0200 (deg)
          preset time         =   0.60 (sec)

# Data      [ Total No. = 3051 ]
  <2Theta>   <   I   >
     4.0000       208
     4.2200       186
     4.4400       172
     4.6600       162
     4.8800       152
     5.1000       166
     5.3200       184
     5.5400       172
     5.7600       162
     5.9800       218
     6.2000       278
     6.4200       224
     6.6400       142
     6.8600       150
     7.0800       138
     7.3000       112
     7.5200       130
     7.7400       114
     7.9600       110
     8.1800       128
     8.4000       126
     8.6200       132
     8.8400       106
     9.0600       100
     9.2800       118
     9.5000       114
     9.7200       118
     9.9400       126
    10.1600        92
    10.3800       124
    10.6000       118
    10.8200       100
    11.0400       106
    11.2600        96
    11.4800        92
    11.7000       102
    11.9200       112
    12.1400       120
    12.3600       246
    12.5800       190
    12.8000       106
    13.0200        78
    13.2400        76
    13.4600        90
    13.6800        66
    13.9000        86
    14.1200        76
    14.3400        76
    14.5600        54
    14.7800        60
    15.0000        64
    15.2200        64
    15.4400        90
    15.6600        52
    15.8800        76
    16.1000        64
    16.3200        56
    16.5400        56
    16.7600        58
    16.9800        54
    17.2000        74
    17.4200        58
    17.6400        78
    17.8600        64
    18.0800        56
    18.3000        64
    18.5200        82
    18.7400       120
    18.9600        92
    19.1800        80
    19.4000        90
    19.6200        72
    19.8400        58
    20.0600        88
    20.2800        78
    20.5000        54
    20.7200        72
    20.9400        72
    21.1600        84
    21.3800        60
    21.6000        64
    21.8200        50
    22.0400        60
    22.2600        44
    22.4800        62
    22.7000        52
    22.9200        58
    23.1400        42
    23.3600        60
    23.5800        64
    23.8000        60
    24.0200        66
    24.2400        78
    24.4600        72
    24.6800       112
    24.9000       156
    25.1200       246
    25.3400        90
    25.5600        74
    25.7800        70
    26.0000        76
    26.2200        54
    26.4400        62
    26.6600        60
    26.8800        54
    27.1000        54
    27.3200        42
    27.5400        34
    27.7600        48
    27.9800        42
    28.2000        48
    28.4200        44
    28.6400        42
    28.8600        36
    29.0800        26
    29.3000        42
    29.5200        36
    29.7400        38
    29.9600        42
    30.1800        36
    30.4000        38
    30.6200        48
    30.8400        50
    31.0600        50
    31.2800        58
    31.5000        86
    31.7200        62
    31.9400        38
    32.1600        46
    32.3800        46
    32.6000        38
    32.8200        38
    33.0400        44
    33.2600        44
    33.4800        40
    33.7000        46
    33.9200        42
    34.1400        62
    34.3600        72
    34.5800       156
    34.8000        82
    35.0200        94
    35.2400        92
    35.4600        38
    35.6800        52
    35.9000        34
    36.1200        52
    36.3400        44
    36.5600        70
    36.7800       108
    37.0000        56
    37.2200        62
    37.4400        62
    37.6600        90
    37.8800        52
    38.1000        40
    38.3200        28
    38.5400        34
    38.7600        38
    38.9800        40
    39.2000        42
    39.4200        44
    39.6400        54
    39.8600        84
    40.0800        58
    40.3000        40
    40.5200        42
    40.7400        50
    40.9600        46
    41.1800        38
    41.4000        42
    41.6200        40
    41.8400        22
    42.0600        46
    42.2800        36
    42.5000        36
    42.7200        38
    42.9400        24
    43.1600        28
    43.3800        32
    43.6000        44
    43.8200        38
    44.0400        34
    44.2600        42
    44.4800        40
    44.7000        50
    44.9200        78
    45.1400       120
    45.3600        84
    45.5800        64
    45.8000        36
    46.0200        26
    46.2400        28
    46.4600        32
    46.6800        22
    46.9000        36
    47.1200        28
    47.3400        34
    47.5600        50
    47.7800        42
    48.0000        44
    48.2200        54
    48.4400        54
    48.6600        40
    48.8800        42
    49.1000        36
    49.3200        36
    49.5400        34
    49.7600        40
    49.9800        38
    50.2000        34
    50.4200        36
    50.6400        34
    50.8600        22
    51.0800        32
    51.3000        30
    51.5200        34
    51.7400        30
    51.9600        26
    52.1800        32
    52.4000        40
    52.6200        34
    52.8400        46
    53.0600        20
    53.2800        42
    53.5000        46
    53.7200        38
    53.9400        34
    54.1600        34
    54.3800        40
    54.6000        38
    54.8200        36
    55.0400        42
    55.2600        48
    55.4800        40
    55.7000        42
    55.9200        34
    56.1400        34
    56.3600        30
    56.5800        40
    56.8000        38
    57.0200        28
    57.2400        30
    57.4600        26
    57.6800        36
    57.9000        32
    58.1200        24
    58.3400        40
    58.5600        42
    58.7800        68
    59.0000        88
    59.2200        64
    59.4400        46
    59.6600        56
    59.8800       108
    60.1000        72
    60.3200        58
    60.5400        46
    60.7600        40
    60.9800        48
    61.2000        58
    61.4200        54
    61.6400        52
    61.8600        42
    62.0800        32
    62.3000        38
    62.5200        22
    62.7400        20
    62.9600        34
    63.1800        40
    63.4000        22
    63.6200        38
    63.8400        20
    64.0600        26
    64.2800        22
    64.5000        24
    64.7200        34
    64.9400        22
    65.0000        30