File: sl1/usgs/library06/DESCRIPT/new_xrd_results_to_be_added/Rhonda_Driscoll_xrd_runs/GDS41.txt
/////////////////////////////////////////////////////////////////////////////////
/// Profile Data Ascii Dump (XRD)                                             ///
/////////////////////////////////////////////////////////////////////////////////

  Group     : Swayze
  Data      : GDS41
  File Name : GDS41.RAW

# Profile Datafile
          comment             = Nontronite
          date & time         = 08-03-24 07:17:59

# Measurement Condition
    X-ray tube
          target              = Cu
          voltage             = 40.0 (kV)
          current             = 30.0 (mA)
    Slits
          divergence slit     = 2.00000 (deg)
          scatter slit        = 2.00000 (deg)
          receiving slit      = 0.15000 (mm)
    Scanning
          drive axis          = Theta-2Theta
          scan range          =    4.000 -   65.000
          scan mode           = Continuous Scan
          scan speed          =   2.0000 (deg/min)
          sampling pitch      =   0.0200 (deg)
          preset time         =   0.60 (sec)

# Data      [ Total No. = 3051 ]
  <2Theta>   <   I   >
     4.0000       202
     4.2200       162
     4.4400       184
     4.6600       172
     4.8800       196
     5.1000       170
     5.3200       174
     5.5400       180
     5.7600       182
     5.9800       244
     6.2000       244
     6.4200       164
     6.6400       162
     6.8600       132
     7.0800       124
     7.3000       140
     7.5200       126
     7.7400       134
     7.9600       144
     8.1800       236
     8.4000       136
     8.6200       108
     8.8400       124
     9.0600       120
     9.2800       124
     9.5000       138
     9.7200       112
     9.9400       104
    10.1600       114
    10.3800       114
    10.6000       126
    10.8200        94
    11.0400       112
    11.2600       214
    11.4800       530
    11.7000       174
    11.9200       136
    12.1400       138
    12.3600       294
    12.5800       366
    12.8000       182
    13.0200       862
    13.2400       106
    13.4600        78
    13.6800        76
    13.9000        62
    14.1200        74
    14.3400        78
    14.5600        80
    14.7800        72
    15.0000        80
    15.2200       196
    15.4400       258
    15.6600        82
    15.8800        78
    16.1000        94
    16.3200       150
    16.5400       440
    16.7600       136
    16.9800        68
    17.2000        84
    17.4200        84
    17.6400        84
    17.8600       172
    18.0800       168
    18.3000       136
    18.5200       318
    18.7400      1638
    18.9600       158
    19.1800       244
    19.4000       588
    19.6200       266
    19.8400       118
    20.0600       206
    20.2800       694
    20.5000       178
    20.7200      1140
    20.9400       114
    21.1600        88
    21.3800        86
    21.6000       100
    21.8200       308
    22.0400       242
    22.2600       150
    22.4800       150
    22.7000        76
    22.9200        96
    23.1400       108
    23.3600       290
    23.5800       108
    23.8000       108
    24.0200       216
    24.2400       134
    24.4600       484
    24.6800      1714
    24.9000       572
    25.1200      6828
    25.3400       176
    25.5600       166
    25.7800       180
    26.0000       110
    26.2200       148
    26.4400       300
    26.6600        84
    26.8800        76
    27.1000       196
    27.3200       192
    27.5400       146
    27.7600        84
    27.9800        86
    28.2000        72
    28.4200       156
    28.6400       110
    28.8600        84
    29.0800        68
    29.3000        70
    29.5200        78
    29.7400        74
    29.9600        72
    30.1800       106
    30.4000       194
    30.6200       142
    30.8400       480
    31.0600       164
    31.2800       212
    31.5000       134
    31.7200       320
    31.9400       294
    32.1600       126
    32.3800       136
    32.6000       178
    32.8200       108
    33.0400        90
    33.2600       210
    33.4800       216
    33.7000       156
    33.9200        86
    34.1400       120
    34.3600       192
    34.5800       202
    34.8000       156
    35.0200       222
    35.2400       182
    35.4600       174
    35.6800       164
    35.9000       178
    36.1200       270
    36.3400       112
    36.5600       258
    36.7800       192
    37.0000       160
    37.2200       242
    37.4400       142
    37.6600       126
    37.8800       134
    38.1000       274
    38.3200       526
    38.5400       156
    38.7600       132
    38.9800       226
    39.2000       104
    39.4200        82
    39.6400       298
    39.8600       314
    40.0800       194
    40.3000       166
    40.5200       118
    40.7400        72
    40.9600        92
    41.1800       150
    41.4000       200
    41.6200        70
    41.8400        68
    42.0600        76
    42.2800        76
    42.5000       102
    42.7200        98
    42.9400       102
    43.1600       110
    43.3800       186
    43.6000       164
    43.8200       174
    44.0400       100
    44.2600        86
    44.4800       122
    44.7000        92
    44.9200       138
    45.1400       124
    45.3600       112
    45.5800        82
    45.8000        94
    46.0200        58
    46.2400       122
    46.4600       102
    46.6800       144
    46.9000       168
    47.1200       196
    47.3400        98
    47.5600       188
    47.7800       128
    48.0000       150
    48.2200       110
    48.4400       114
    48.6600        94
    48.8800        88
    49.1000       132
    49.3200        90
    49.5400        74
    49.7600        92
    49.9800       100
    50.2000       100
    50.4200       116
    50.6400       146
    50.8600        96
    51.0800        46
    51.3000        88
    51.5200        94
    51.7400       130
    51.9600       110
    52.1800        92
    52.4000        68
    52.6200       108
    52.8400        72
    53.0600       106
    53.2800        82
    53.5000        96
    53.7200       110
    53.9400       176
    54.1600        96
    54.3800        80
    54.6000        98
    54.8200        84
    55.0400        92
    55.2600       102
    55.4800        92
    55.7000        72
    55.9200        74
    56.1400        64
    56.3600        88
    56.5800        62
    56.8000        58
    57.0200        58
    57.2400        84
    57.4600       106
    57.6800        74
    57.9000        76
    58.1200        74
    58.3400        70
    58.5600        76
    58.7800        92
    59.0000       146
    59.2200       102
    59.4400        72
    59.6600       124
    59.8800       140
    60.1000        98
    60.3200       104
    60.5400       114
    60.7600        84
    60.9800        84
    61.2000        90
    61.4200        86
    61.6400        82
    61.8600        74
    62.0800        74
    62.3000        66
    62.5200        58
    62.7400        58
    62.9600        64
    63.1800        58
    63.4000       122
    63.6200       112
    63.8400        66
    64.0600        62
    64.2800       108
    64.5000        74
    64.7200        72
    64.9400        72
    65.0000        76