File: sl1/usgs/library06/DESCRIPT/new_xrd_results_to_be_added/Rhonda_Driscoll_xrd_runs/GDS444-Aragonite-CO.txt
/////////////////////////////////////////////////////////////////////////////////
/// Profile Data Ascii Dump (XRD)                                             ///
/////////////////////////////////////////////////////////////////////////////////

  Group     : Swayze
  Data      : GDS444
  File Name : GDS444.RAW

# Profile Datafile
          comment             = Aragonite-CO
          date & time         = 08-04-29 08:45:48

# Measurement Condition
    X-ray tube
          target              = Cu
          voltage             = 40.0 (kV)
          current             = 30.0 (mA)
    Slits
          divergence slit     = 2.00000 (deg)
          scatter slit        = 2.00000 (deg)
          receiving slit      = 0.15000 (mm)
    Scanning
          drive axis          = Theta-2Theta
          scan range          =    4.000 -   65.000
          scan mode           = Continuous Scan
          scan speed          =   2.0000 (deg/min)
          sampling pitch      =   0.0200 (deg)
          preset time         =   0.60 (sec)

# Data      [ Total No. = 3051 ]
  <2Theta>   <   I   >
     4.0000       198
     4.2200       172
     4.4400       178
     4.6600       164
     4.8800       150
     5.1000       156
     5.3200       140
     5.5400       138
     5.7600       160
     5.9800       170
     6.2000       152
     6.4200       148
     6.6400       110
     6.8600       122
     7.0800       130
     7.3000       114
     7.5200       102
     7.7400       106
     7.9600       118
     8.1800       104
     8.4000       130
     8.6200        92
     8.8400       124
     9.0600       116
     9.2800       116
     9.5000       106
     9.7200        96
     9.9400        98
    10.1600       102
    10.3800        74
    10.6000        84
    10.8200        84
    11.0400        76
    11.2600        82
    11.4800        60
    11.7000        92
    11.9200        68
    12.1400       104
    12.3600        62
    12.5800        70
    12.8000        68
    13.0200        56
    13.2400        60
    13.4600        64
    13.6800        52
    13.9000        58
    14.1200        66
    14.3400        68
    14.5600        62
    14.7800        48
    15.0000        44
    15.2200        54
    15.4400        50
    15.6600        66
    15.8800        40
    16.1000        58
    16.3200        68
    16.5400        46
    16.7600        34
    16.9800        38
    17.2000        52
    17.4200        46
    17.6400        34
    17.8600        40
    18.0800        30
    18.3000        30
    18.5200        40
    18.7400        50
    18.9600        34
    19.1800        38
    19.4000        40
    19.6200        44
    19.8400        40
    20.0600        34
    20.2800        46
    20.5000        26
    20.7200        40
    20.9400        48
    21.1600        22
    21.3800        48
    21.6000        32
    21.8200        40
    22.0400        48
    22.2600        22
    22.4800        54
    22.7000        44
    22.9200       158
    23.1400        66
    23.3600        38
    23.5800        32
    23.8000        36
    24.0200        32
    24.2400        30
    24.4600        30
    24.6800        28
    24.9000        30
    25.1200        34
    25.3400        30
    25.5600        34
    25.7800        36
    26.0000        54
    26.2200        62
    26.4400        68
    26.6600        36
    26.8800        24
    27.1000        64
    27.3200        46
    27.5400        36
    27.7600        36
    27.9800        62
    28.2000        52
    28.4200        54
    28.6400        66
    28.8600       118
    29.0800       514
    29.3000      5344
    29.5200       796
    29.7400       100
    29.9600        46
    30.1800        48
    30.4000        38
    30.6200        26
    30.8400        26
    31.0600        28
    31.2800        96
    31.5000        56
    31.7200        32
    31.9400        24
    32.1600        24
    32.3800        16
    32.6000        30
    32.8200        34
    33.0400        86
    33.2600        14
    33.4800        20
    33.7000        20
    33.9200        20
    34.1400        28
    34.3600        28
    34.5800        30
    34.8000        22
    35.0200        24
    35.2400        26
    35.4600        44
    35.6800        54
    35.9000       324
    36.1200        94
    36.3400        34
    36.5600        32
    36.7800        26
    37.0000        22
    37.2200        40
    37.4400        20
    37.6600        38
    37.8800        54
    38.1000        32
    38.3200        50
    38.5400        46
    38.7600        26
    38.9800        56
    39.2000       158
    39.4200       340
    39.6400        62
    39.8600        24
    40.0800        24
    40.3000        20
    40.5200        24
    40.7400        24
    40.9600        24
    41.1800        34
    41.4000        16
    41.6200        26
    41.8400        24
    42.0600        26
    42.2800        26
    42.5000        34
    42.7200        44
    42.9400       126
    43.1600       436
    43.3800        60
    43.6000        32
    43.8200        28
    44.0400        30
    44.2600        28
    44.4800        20
    44.7000        22
    44.9200        32
    45.1400        26
    45.3600        32
    45.5800        28
    45.8000        70
    46.0200        36
    46.2400        22
    46.4600        22
    46.6800        38
    46.9000        94
    47.1200       162
    47.3400       416
    47.5600       418
    47.7800        72
    48.0000        56
    48.2200       140
    48.4400       492
    48.6600       178
    48.8800        52
    49.1000        34
    49.3200        24
    49.5400        26
    49.7600        24
    49.9800        20
    50.2000        46
    50.4200        26
    50.6400        18
    50.8600        18
    51.0800        14
    51.3000        18
    51.5200        22
    51.7400        12
    51.9600        18
    52.1800        22
    52.4000        46
    52.6200        28
    52.8400        32
    53.0600        34
    53.2800        22
    53.5000        18
    53.7200        30
    53.9400        22
    54.1600        24
    54.3800        22
    54.6000        26
    54.8200        20
    55.0400        16
    55.2600        16
    55.4800        18
    55.7000        28
    55.9200        20
    56.1400        22
    56.3600        40
    56.5800        90
    56.8000        46
    57.0200        50
    57.2400       120
    57.4600       150
    57.6800        62
    57.9000        36
    58.1200        50
    58.3400        20
    58.5600        22
    58.7800        20
    59.0000        26
    59.2200        24
    59.4400        18
    59.6600        20
    59.8800        18
    60.1000        18
    60.3200        36
    60.5400       104
    60.7600       116
    60.9800       152
    61.2000       110
    61.4200        86
    61.6400        34
    61.8600        38
    62.0800        22
    62.3000        14
    62.5200        24
    62.7400        18
    62.9600        60
    63.1800        42
    63.4000        24
    63.6200        24
    63.8400        24
    64.0600        24
    64.2800        28
    64.5000        90
    64.7200       104
    64.9400        48
    65.0000        44