File: sl1/usgs/library06/DESCRIPT/new_xrd_results_to_be_added/Rhonda_Driscoll_xrd_runs/GDS40-Scapolite-grp.txt
/////////////////////////////////////////////////////////////////////////////////
/// Profile Data Ascii Dump (XRD)                                             ///
/////////////////////////////////////////////////////////////////////////////////

  Group     : Swayze
  Data      : GDS40
  File Name : GDS40.RAW

# Profile Datafile
          comment             = Scapolite grp
          date & time         = 08-04-29 08:14:53

# Measurement Condition
    X-ray tube
          target              = Cu
          voltage             = 40.0 (kV)
          current             = 30.0 (mA)
    Slits
          divergence slit     = 2.00000 (deg)
          scatter slit        = 2.00000 (deg)
          receiving slit      = 0.15000 (mm)
    Scanning
          drive axis          = Theta-2Theta
          scan range          =    4.000 -   65.000
          scan mode           = Continuous Scan
          scan speed          =   2.0000 (deg/min)
          sampling pitch      =   0.0200 (deg)
          preset time         =   0.60 (sec)

# Data      [ Total No. = 3051 ]
  <2Theta>   <   I   >
     4.0000       206
     4.2200       176
     4.4400       150
     4.6600       174
     4.8800       146
     5.1000       154
     5.3200       150
     5.5400       142
     5.7600       152
     5.9800       184
     6.2000       140
     6.4200       132
     6.6400       144
     6.8600       148
     7.0800       102
     7.3000       124
     7.5200       122
     7.7400       132
     7.9600       100
     8.1800       104
     8.4000       124
     8.6200       134
     8.8400       102
     9.0600       116
     9.2800       118
     9.5000       130
     9.7200       130
     9.9400       122
    10.1600       124
    10.3800        96
    10.6000        86
    10.8200        88
    11.0400        90
    11.2600        84
    11.4800        78
    11.7000        86
    11.9200        90
    12.1400        80
    12.3600        76
    12.5800        88
    12.8000        78
    13.0200        80
    13.2400        76
    13.4600        70
    13.6800        92
    13.9000        88
    14.1200        54
    14.3400        80
    14.5600       184
    14.7800        78
    15.0000        58
    15.2200        54
    15.4400        56
    15.6600        42
    15.8800        56
    16.1000        70
    16.3200        60
    16.5400        46
    16.7600        52
    16.9800        38
    17.2000        46
    17.4200        46
    17.6400        54
    17.8600        52
    18.0800        66
    18.3000        48
    18.5200        44
    18.7400        66
    18.9600        54
    19.1800        58
    19.4000        46
    19.6200        48
    19.8400        48
    20.0600        86
    20.2800        44
    20.5000        48
    20.7200        96
    20.9400        52
    21.1600        46
    21.3800        56
    21.6000        42
    21.8200        38
    22.0400        38
    22.2600        46
    22.4800        38
    22.7000        40
    22.9200        78
    23.1400       366
    23.3600        94
    23.5800        42
    23.8000        50
    24.0200        44
    24.2400        42
    24.4600        42
    24.6800        56
    24.9000       234
    25.1200        74
    25.3400       114
    25.5600       724
    25.7800       970
    26.0000        56
    26.2200        46
    26.4400        46
    26.6600        36
    26.8800        36
    27.1000        40
    27.3200        36
    27.5400        36
    27.7600        46
    27.9800        38
    28.2000        48
    28.4200        46
    28.6400        64
    28.8600       222
    29.0800       690
    29.3000       322
    29.5200       562
    29.7400        40
    29.9600        40
    30.1800        28
    30.4000        48
    30.6200        32
    30.8400        30
    31.0600        38
    31.2800        96
    31.5000        76
    31.7200        32
    31.9400        28
    32.1600        34
    32.3800        40
    32.6000       206
    32.8200       108
    33.0400       282
    33.2600       426
    33.4800        54
    33.7000        38
    33.9200        34
    34.1400        26
    34.3600        32
    34.5800        32
    34.8000        36
    35.0200        34
    35.2400        28
    35.4600        38
    35.6800        48
    35.9000        38
    36.1200        22
    36.3400        32
    36.5600        20
    36.7800        28
    37.0000        30
    37.2200        24
    37.4400        36
    37.6600        36
    37.8800        62
    38.1000        34
    38.3200        34
    38.5400        26
    38.7600        48
    38.9800       214
    39.2000        48
    39.4200        42
    39.6400        44
    39.8600        18
    40.0800        34
    40.3000        40
    40.5200        30
    40.7400        30
    40.9600        70
    41.1800        34
    41.4000        42
    41.6200        34
    41.8400       116
    42.0600       342
    42.2800       106
    42.5000        30
    42.7200        24
    42.9400        24
    43.1600        34
    43.3800        62
    43.6000        78
    43.8200        24
    44.0400        20
    44.2600        26
    44.4800        30
    44.7000        64
    44.9200       184
    45.1400        68
    45.3600        36
    45.5800        44
    45.8000        24
    46.0200        24
    46.2400        24
    46.4600        32
    46.6800        36
    46.9000        52
    47.1200       350
    47.3400       308
    47.5600       200
    47.7800        70
    48.0000       222
    48.2200        52
    48.4400        30
    48.6600        38
    48.8800        42
    49.1000        20
    49.3200        42
    49.5400        80
    49.7600        74
    49.9800        88
    50.2000        44
    50.4200        28
    50.6400        40
    50.8600        32
    51.0800        34
    51.3000        30
    51.5200        32
    51.7400        24
    51.9600        54
    52.1800        70
    52.4000        80
    52.6200        42
    52.8400        32
    53.0600        20
    53.2800        46
    53.5000       188
    53.7200        48
    53.9400        24
    54.1600        26
    54.3800        42
    54.6000        86
    54.8200        44
    55.0400        26
    55.2600        24
    55.4800        24
    55.7000        30
    55.9200        30
    56.1400        28
    56.3600        26
    56.5800        88
    56.8000        36
    57.0200        22
    57.2400       126
    57.4600        64
    57.6800        26
    57.9000        70
    58.1200        30
    58.3400        34
    58.5600        30
    58.7800        32
    59.0000       164
    59.2200        80
    59.4400        40
    59.6600        32
    59.8800        26
    60.1000        24
    60.3200        38
    60.5400        32
    60.7600        20
    60.9800        44
    61.2000        82
    61.4200        40
    61.6400        36
    61.8600        30
    62.0800        34
    62.3000        42
    62.5200        38
    62.7400        48
    62.9600        52
    63.1800        86
    63.4000       184
    63.6200       104
    63.8400        50
    64.0600        22
    64.2800        32
    64.5000        26
    64.7200        28
    64.9400        28
    65.0000        28