File: sl1/usgs/library06/DESCRIPT/new_xrd_results_to_be_added/Rhonda_Driscoll_xrd_runs/GDS46---Scapolite.txt
/////////////////////////////////////////////////////////////////////////////////
/// Profile Data Ascii Dump (XRD)                                             ///
/////////////////////////////////////////////////////////////////////////////////

  Group     : Swayze
  Data      : GDS46
  File Name : GDS46.RAW

# Profile Datafile
          comment             = Scapolite
          date & time         = 08-03-25 06:22:10

# Measurement Condition
    X-ray tube
          target              = Cu
          voltage             = 40.0 (kV)
          current             = 30.0 (mA)
    Slits
          divergence slit     = 2.00000 (deg)
          scatter slit        = 2.00000 (deg)
          receiving slit      = 0.15000 (mm)
    Scanning
          drive axis          = Theta-2Theta
          scan range          =    4.000 -   65.000
          scan mode           = Continuous Scan
          scan speed          =   2.0000 (deg/min)
          sampling pitch      =   0.0200 (deg)
          preset time         =   0.60 (sec)

# Data      [ Total No. = 3051 ]
  <2Theta>   <   I   >
     4.0000       176
     4.2200       182
     4.4400       188
     4.6600       180
     4.8800       162
     5.1000       164
     5.3200       172
     5.5400       140
     5.7600       144
     5.9800       156
     6.2000       174
     6.4200       148
     6.6400       124
     6.8600       126
     7.0800       138
     7.3000       110
     7.5200       102
     7.7400        92
     7.9600       100
     8.1800       126
     8.4000       104
     8.6200       136
     8.8400       112
     9.0600       102
     9.2800       124
     9.5000       106
     9.7200        90
     9.9400       104
    10.1600       124
    10.3800       176
    10.6000       112
    10.8200        90
    11.0400        84
    11.2600        80
    11.4800        74
    11.7000        78
    11.9200        76
    12.1400        90
    12.3600        84
    12.5800        80
    12.8000        52
    13.0200        54
    13.2400        70
    13.4600        76
    13.6800        96
    13.9000        80
    14.1200        68
    14.3400        78
    14.5600       114
    14.7800       120
    15.0000        58
    15.2200        66
    15.4400        54
    15.6600        68
    15.8800        70
    16.1000        54
    16.3200        46
    16.5400        52
    16.7600        48
    16.9800        54
    17.2000        64
    17.4200        50
    17.6400        48
    17.8600        48
    18.0800        42
    18.3000        52
    18.5200        42
    18.7400        62
    18.9600        52
    19.1800        50
    19.4000        36
    19.6200        54
    19.8400        42
    20.0600        58
    20.2800        72
    20.5000        44
    20.7200        74
    20.9400        74
    21.1600        46
    21.3800        48
    21.6000        52
    21.8200        42
    22.0400        72
    22.2600        56
    22.4800        40
    22.7000        44
    22.9200        72
    23.1400       144
    23.3600      1084
    23.5800       128
    23.8000        54
    24.0200        62
    24.2400        74
    24.4600        40
    24.6800        52
    24.9000       142
    25.1200       418
    25.3400        96
    25.5600       638
    25.7800       742
    26.0000       126
    26.2200        64
    26.4400        62
    26.6600        56
    26.8800        40
    27.1000        44
    27.3200        34
    27.5400        66
    27.7600       190
    27.9800       876
    28.2000        78
    28.4200        68
    28.6400        50
    28.8600        76
    29.0800       534
    29.3000       536
    29.5200       276
    29.7400       272
    29.9600        48
    30.1800        46
    30.4000        46
    30.6200        52
    30.8400        34
    31.0600        38
    31.2800        56
    31.5000       206
    31.7200        56
    31.9400        40
    32.1600        30
    32.3800        38
    32.6000        52
    32.8200       278
    33.0400       104
    33.2600       486
    33.4800       192
    33.7000        38
    33.9200        50
    34.1400        32
    34.3600        28
    34.5800        28
    34.8000        44
    35.0200        64
    35.2400        36
    35.4600        46
    35.6800        30
    35.9000        38
    36.1200        30
    36.3400        26
    36.5600        26
    36.7800        36
    37.0000        50
    37.2200        30
    37.4400        48
    37.6600        30
    37.8800        38
    38.1000        54
    38.3200        30
    38.5400        46
    38.7600        48
    38.9800        50
    39.2000       288
    39.4200        60
    39.6400        46
    39.8600        30
    40.0800        28
    40.3000        26
    40.5200        26
    40.7400        32
    40.9600        72
    41.1800        42
    41.4000        38
    41.6200        30
    41.8400        58
    42.0600       314
    42.2800       154
    42.5000        68
    42.7200        54
    42.9400        38
    43.1600        30
    43.3800        32
    43.6000        40
    43.8200        52
    44.0400        22
    44.2600        32
    44.4800        40
    44.7000        40
    44.9200       140
    45.1400       118
    45.3600        46
    45.5800        40
    45.8000        56
    46.0200        26
    46.2400        26
    46.4600        38
    46.6800        34
    46.9000        30
    47.1200        58
    47.3400       178
    47.5600       800
    47.7800       154
    48.0000        88
    48.2200        44
    48.4400        38
    48.6600        38
    48.8800        28
    49.1000        32
    49.3200        24
    49.5400        38
    49.7600        44
    49.9800        52
    50.2000       104
    50.4200        66
    50.6400        28
    50.8600        34
    51.0800        34
    51.3000        28
    51.5200        42
    51.7400        36
    51.9600        34
    52.1800        46
    52.4000       108
    52.6200        44
    52.8400        32
    53.0600        30
    53.2800        46
    53.5000        26
    53.7200       184
    53.9400        80
    54.1600        34
    54.3800        50
    54.6000        34
    54.8200        62
    55.0400        30
    55.2600        32
    55.4800        22
    55.7000        30
    55.9200        22
    56.1400        28
    56.3600        32
    56.5800        42
    56.8000        54
    57.0200        56
    57.2400        38
    57.4600        54
    57.6800        32
    57.9000        34
    58.1200        36
    58.3400        40
    58.5600        42
    58.7800        50
    59.0000        44
    59.2200       132
    59.4400        90
    59.6600        50
    59.8800        20
    60.1000        30
    60.3200        38
    60.5400        38
    60.7600        26
    60.9800        30
    61.2000        86
    61.4200        92
    61.6400        44
    61.8600        28
    62.0800        26
    62.3000        28
    62.5200        32
    62.7400        82
    62.9600        58
    63.1800        38
    63.4000        52
    63.6200       116
    63.8400        84
    64.0600        28
    64.2800        32
    64.5000        36
    64.7200        32
    64.9400        28
    65.0000        34