File: sl1/usgs/library06/DESCRIPT/new_xrd_results_to_be_added/Rhonda_Driscoll_xrd_runs/GDS55---Na-bicarb.txt
/////////////////////////////////////////////////////////////////////////////////
/// Profile Data Ascii Dump (XRD)                                             ///
/////////////////////////////////////////////////////////////////////////////////

  Group     : Swayze
  Data      : GDS55
  File Name : GDS55.RAW

# Profile Datafile
          comment             = Na-bicarb
          date & time         = 08-03-13 06:52:47

# Measurement Condition
    X-ray tube
          target              = Cu
          voltage             = 40.0 (kV)
          current             = 30.0 (mA)
    Slits
          divergence slit     = 2.00000 (deg)
          scatter slit        = 2.00000 (deg)
          receiving slit      = 0.15000 (mm)
    Scanning
          drive axis          = Theta-2Theta
          scan range          =    4.000 -   65.000
          scan mode           = Continuous Scan
          scan speed          =   2.0000 (deg/min)
          sampling pitch      =   0.0200 (deg)
          preset time         =   0.60 (sec)

# Data      [ Total No. = 3051 ]
  <2Theta>   <   I   >
     4.0000       164
     4.2200       180
     4.4400       144
     4.6600       158
     4.8800       124
     5.1000       148
     5.3200       150
     5.5400       144
     5.7600       152
     5.9800       168
     6.2000       140
     6.4200       122
     6.6400       152
     6.8600       112
     7.0800       124
     7.3000       116
     7.5200       114
     7.7400       124
     7.9600       118
     8.1800       104
     8.4000       110
     8.6200       108
     8.8400       102
     9.0600       106
     9.2800       148
     9.5000       112
     9.7200       132
     9.9400        98
    10.1600       102
    10.3800       102
    10.6000        94
    10.8200        94
    11.0400        94
    11.2600        82
    11.4800        82
    11.7000       102
    11.9200        84
    12.1400        78
    12.3600        86
    12.5800        78
    12.8000        80
    13.0200        84
    13.2400        56
    13.4600        88
    13.6800        80
    13.9000        74
    14.1200        62
    14.3400        78
    14.5600        98
    14.7800       130
    15.0000       142
    15.2200        64
    15.4400        62
    15.6600        66
    15.8800        66
    16.1000        68
    16.3200        62
    16.5400        56
    16.7600        58
    16.9800        54
    17.2000        56
    17.4200        60
    17.6400        70
    17.8600        94
    18.0800       312
    18.3000      1052
    18.5200       100
    18.7400        60
    18.9600        64
    19.1800        40
    19.4000        62
    19.6200        46
    19.8400        52
    20.0600        46
    20.2800        62
    20.5000        58
    20.7200        42
    20.9400        54
    21.1600        70
    21.3800       104
    21.6000        74
    21.8200       156
    22.0400        52
    22.2600        80
    22.4800        80
    22.7000        56
    22.9200        44
    23.1400        58
    23.3600        60
    23.5800        86
    23.8000       132
    24.0200       268
    24.2400        82
    24.4600        48
    24.6800        56
    24.9000        70
    25.1200        94
    25.3400       282
    25.5600       454
    25.7800        70
    26.0000        56
    26.2200        64
    26.4400        66
    26.6600        64
    26.8800        82
    27.1000       208
    27.3200       124
    27.5400       172
    27.7600        72
    27.9800        62
    28.2000        96
    28.4200        92
    28.6400       284
    28.8600       530
    29.0800       598
    29.3000       162
    29.5200       126
    29.7400       216
    29.9600      1314
    30.1800      3032
    30.4000      1150
    30.6200       332
    30.8400       138
    31.0600       176
    31.2800       218
    31.5000       310
    31.7200       188
    31.9400       240
    32.1600        98
    32.3800        98
    32.6000       176
    32.8200       134
    33.0400       148
    33.2600       514
    33.4800       314
    33.7000       388
    33.9200       298
    34.1400       356
    34.3600      1548
    34.5800       260
    34.8000        90
    35.0200       154
    35.2400       134
    35.4600        94
    35.6800       102
    35.9000        98
    36.1200       176
    36.3400       142
    36.5600       204
    36.7800        96
    37.0000        72
    37.2200       172
    37.4400        94
    37.6600        80
    37.8800        80
    38.1000        72
    38.3200        86
    38.5400       138
    38.7600       186
    38.9800       666
    39.2000       158
    39.4200       118
    39.6400        92
    39.8600       108
    40.0800        98
    40.3000       202
    40.5200       620
    40.7400       850
    40.9600       146
    41.1800        82
    41.4000        72
    41.6200        54
    41.8400        68
    42.0600        58
    42.2800        72
    42.5000        84
    42.7200       116
    42.9400       130
    43.1600       248
    43.3800       204
    43.6000        86
    43.8200        88
    44.0400       128
    44.2600       384
    44.4800       800
    44.7000       144
    44.9200        92
    45.1400       148
    45.3600       184
    45.5800       308
    45.8000       278
    46.0200       588
    46.2400       122
    46.4600       122
    46.6800       268
    46.9000       244
    47.1200       140
    47.3400       194
    47.5600       488
    47.7800       272
    48.0000        86
    48.2200       118
    48.4400       228
    48.6600       122
    48.8800        92
    49.1000       100
    49.3200        82
    49.5400        66
    49.7600       108
    49.9800        94
    50.2000        96
    50.4200       104
    50.6400       104
    50.8600        86
    51.0800       138
    51.3000       174
    51.5200       116
    51.7400       110
    51.9600       118
    52.1800       134
    52.4000       230
    52.6200       302
    52.8400       126
    53.0600       148
    53.2800       146
    53.5000       140
    53.7200       122
    53.9400       152
    54.1600       196
    54.3800       114
    54.6000        78
    54.8200       106
    55.0400       160
    55.2600       216
    55.4800        94
    55.7000       110
    55.9200       134
    56.1400       140
    56.3600       210
    56.5800       158
    56.8000       294
    57.0200       634
    57.2400       134
    57.4600       112
    57.6800        98
    57.9000       130
    58.1200       194
    58.3400       250
    58.5600       106
    58.7800        68
    59.0000        88
    59.2200       100
    59.4400        68
    59.6600        96
    59.8800        94
    60.1000        94
    60.3200       140
    60.5400       214
    60.7600       220
    60.9800       108
    61.2000        66
    61.4200        82
    61.6400        84
    61.8600        74
    62.0800        72
    62.3000        88
    62.5200       204
    62.7400       146
    62.9600        80
    63.1800       106
    63.4000        98
    63.6200        80
    63.8400        62
    64.0600        72
    64.2800        98
    64.5000       112
    64.7200        88
    64.9400        76
    65.0000        74