File: sl1/usgs/library06/DESCRIPT/new_xrd_results_to_be_added/Rhonda_Driscoll_xrd_runs/GDS5---Mesolite.txt
/////////////////////////////////////////////////////////////////////////////////
/// Profile Data Ascii Dump (XRD)                                             ///
/////////////////////////////////////////////////////////////////////////////////

  Group     : Swayze
  Data      : GDS5
  File Name : GDS5.RAW

# Profile Datafile
          comment             = Mesolite
          date & time         = 08-03-24 08:19:54

# Measurement Condition
    X-ray tube
          target              = Cu
          voltage             = 40.0 (kV)
          current             = 30.0 (mA)
    Slits
          divergence slit     = 2.00000 (deg)
          scatter slit        = 2.00000 (deg)
          receiving slit      = 0.15000 (mm)
    Scanning
          drive axis          = Theta-2Theta
          scan range          =    4.000 -   65.000
          scan mode           = Continuous Scan
          scan speed          =   2.0000 (deg/min)
          sampling pitch      =   0.0200 (deg)
          preset time         =   0.60 (sec)

# Data      [ Total No. = 3051 ]
  <2Theta>   <   I   >
     4.0000       196
     4.2200       180
     4.4400       178
     4.6600       150
     4.8800       128
     5.1000       162
     5.3200       150
     5.5400       144
     5.7600       154
     5.9800       178
     6.2000       140
     6.4200       142
     6.6400       128
     6.8600       118
     7.0800       102
     7.3000        94
     7.5200       100
     7.7400       116
     7.9600       102
     8.1800        98
     8.4000       106
     8.6200       110
     8.8400       112
     9.0600       104
     9.2800        94
     9.5000       110
     9.7200       112
     9.9400       102
    10.1600        90
    10.3800        86
    10.6000       102
    10.8200        94
    11.0400       146
    11.2600       162
    11.4800        70
    11.7000        80
    11.9200        78
    12.1400        72
    12.3600        70
    12.5800        80
    12.8000       108
    13.0200       166
    13.2400       450
    13.4600       376
    13.6800        72
    13.9000        70
    14.1200        72
    14.3400        86
    14.5600        56
    14.7800        72
    15.0000       218
    15.2200        66
    15.4400        56
    15.6600        60
    15.8800        62
    16.1000        76
    16.3200        66
    16.5400        52
    16.7600        48
    16.9800        52
    17.2000        38
    17.4200        54
    17.6400        46
    17.8600        54
    18.0800        54
    18.3000        74
    18.5200       164
    18.7400       368
    18.9600        92
    19.1800       296
    19.4000       136
    19.6200        84
    19.8400        80
    20.0600       176
    20.2800       170
    20.5000        56
    20.7200        66
    20.9400       166
    21.1600      3518
    21.3800       226
    21.6000        48
    21.8200        60
    22.0400        80
    22.2600       162
    22.4800      1238
    22.7000       126
    22.9200       218
    23.1400        56
    23.3600        36
    23.5800        40
    23.8000        44
    24.0200        40
    24.2400        56
    24.4600        46
    24.6800       118
    24.9000        96
    25.1200        50
    25.3400        44
    25.5600        28
    25.7800        30
    26.0000        42
    26.2200        54
    26.4400       108
    26.6600        40
    26.8800       124
    27.1000        50
    27.3200        56
    27.5400       104
    27.7600        56
    27.9800       250
    28.2000        86
    28.4200        48
    28.6400        44
    28.8600       100
    29.0800        66
    29.3000        44
    29.5200        64
    29.7400       390
    29.9600       386
    30.1800       136
    30.4000       290
    30.6200       140
    30.8400       528
    31.0600       258
    31.2800       182
    31.5000        56
    31.7200        66
    31.9400        40
    32.1600        34
    32.3800        34
    32.6000        38
    32.8200        30
    33.0400        48
    33.2600        46
    33.4800        50
    33.7000        34
    33.9200        24
    34.1400        38
    34.3600        72
    34.5800        66
    34.8000       122
    35.0200        36
    35.2400        44
    35.4600        32
    35.6800       108
    35.9000       120
    36.1200       142
    36.3400        96
    36.5600        70
    36.7800       138
    37.0000       182
    37.2200        54
    37.4400        34
    37.6600        42
    37.8800        46
    38.1000        44
    38.3200        42
    38.5400        36
    38.7600        72
    38.9800        92
    39.2000        38
    39.4200        52
    39.6400        40
    39.8600        34
    40.0800        54
    40.3000        70
    40.5200        32
    40.7400       108
    40.9600       866
    41.1800       112
    41.4000        60
    41.6200        50
    41.8400        38
    42.0600        36
    42.2800        74
    42.5000        58
    42.7200        90
    42.9400        68
    43.1600        48
    43.3800        80
    43.6000        88
    43.8200        42
    44.0400        66
    44.2600        32
    44.4800        26
    44.7000        44
    44.9200        56
    45.1400        80
    45.3600        74
    45.5800        36
    45.8000        42
    46.0200        32
    46.2400        40
    46.4600        62
    46.6800        48
    46.9000        46
    47.1200        36
    47.3400        20
    47.5600        40
    47.7800        34
    48.0000        18
    48.2200        30
    48.4400        42
    48.6600        46
    48.8800        62
    49.1000       128
    49.3200        50
    49.5400        26
    49.7600        30
    49.9800        34
    50.2000        66
    50.4200       174
    50.6400        72
    50.8600        46
    51.0800        58
    51.3000        60
    51.5200       124
    51.7400        54
    51.9600        58
    52.1800       384
    52.4000        68
    52.6200        80
    52.8400        52
    53.0600       108
    53.2800        86
    53.5000        40
    53.7200        36
    53.9400        30
    54.1600        42
    54.3800        40
    54.6000        38
    54.8200        30
    55.0400        40
    55.2600        60
    55.4800        62
    55.7000       100
    55.9200        40
    56.1400        58
    56.3600        48
    56.5800        54
    56.8000        84
    57.0200        76
    57.2400        74
    57.4600        42
    57.6800        56
    57.9000       106
    58.1200       132
    58.3400       612
    58.5600       102
    58.7800        52
    59.0000        32
    59.2200        30
    59.4400        38
    59.6600        64
    59.8800        48
    60.1000        44
    60.3200        58
    60.5400        40
    60.7600        38
    60.9800        38
    61.2000        24
    61.4200        42
    61.6400        14
    61.8600        42
    62.0800        48
    62.3000        78
    62.5200        46
    62.7400        50
    62.9600        88
    63.1800        72
    63.4000        58
    63.6200       118
    63.8400        60
    64.0600        40
    64.2800        28
    64.5000        24
    64.7200        24
    64.9400        54
    65.0000        42