File: sl1/usgs/library06/DESCRIPT/new_xrd_results_to_be_added/Rhonda_Driscoll_xrd_runs/GDS5---Laumontite.txt
/////////////////////////////////////////////////////////////////////////////////
/// Profile Data Ascii Dump (XRD)                                             ///
/////////////////////////////////////////////////////////////////////////////////

  Group     : Swayze
  Data      : GDS5b
  File Name : GDS5b.RAW

# Profile Datafile
          comment             = Laumontite
          date & time         = 08-03-27 05:43:50

# Measurement Condition
    X-ray tube
          target              = Cu
          voltage             = 40.0 (kV)
          current             = 30.0 (mA)
    Slits
          divergence slit     = 2.00000 (deg)
          scatter slit        = 2.00000 (deg)
          receiving slit      = 0.15000 (mm)
    Scanning
          drive axis          = Theta-2Theta
          scan range          =    4.000 -   65.000
          scan mode           = Continuous Scan
          scan speed          =   2.0000 (deg/min)
          sampling pitch      =   0.0200 (deg)
          preset time         =   0.60 (sec)

# Data      [ Total No. = 3051 ]
  <2Theta>   <   I   >
     4.0000       182
     4.2200       182
     4.4400       182
     4.6600       152
     4.8800       180
     5.1000       148
     5.3200       154
     5.5400       198
     5.7600       170
     5.9800       174
     6.2000       162
     6.4200       136
     6.6400       124
     6.8600       130
     7.0800       108
     7.3000       128
     7.5200       120
     7.7400       116
     7.9600       132
     8.1800        94
     8.4000       144
     8.6200       136
     8.8400       268
     9.0600       406
     9.2800      3618
     9.5000       172
     9.7200        94
     9.9400       118
    10.1600        94
    10.3800       104
    10.6000       104
    10.8200        94
    11.0400        96
    11.2600        90
    11.4800        86
    11.7000        96
    11.9200        74
    12.1400        84
    12.3600       114
    12.5800       184
    12.8000      1070
    13.0200       122
    13.2400        88
    13.4600        90
    13.6800        70
    13.9000       104
    14.1200        70
    14.3400        64
    14.5600        66
    14.7800        70
    15.0000        52
    15.2200        64
    15.4400        62
    15.6600        58
    15.8800        52
    16.1000        44
    16.3200        46
    16.5400        70
    16.7600        52
    16.9800        70
    17.2000        62
    17.4200        96
    17.6400        54
    17.8600        46
    18.0800        62
    18.3000        70
    18.5200       190
    18.7400       834
    18.9600        66
    19.1800        66
    19.4000        64
    19.6200       142
    19.8400        42
    20.0600        56
    20.2800        54
    20.5000       118
    20.7200        68
    20.9400       148
    21.1600       596
    21.3800      1066
    21.6000        72
    21.8200        40
    22.0400        48
    22.2600        50
    22.4800        50
    22.7000        36
    22.9200        46
    23.1400        42
    23.3600        32
    23.5800        80
    23.8000        40
    24.0200        62
    24.2400       356
    24.4600        58
    24.6800        50
    24.9000        50
    25.1200       252
    25.3400       336
    25.5600        48
    25.7800        70
    26.0000       156
    26.2200        72
    26.4400       192
    26.6600        38
    26.8800        82
    27.1000       502
    27.3200       178
    27.5400        62
    27.7600       246
    27.9800       138
    28.2000       988
    28.4200       106
    28.6400        64
    28.8600        58
    29.0800       104
    29.3000       688
    29.5200       238
    29.7400        50
    29.9600        48
    30.1800       166
    30.4000        42
    30.6200        48
    30.8400       102
    31.0600       126
    31.2800        28
    31.5000        44
    31.7200        54
    31.9400        88
    32.1600        38
    32.3800        30
    32.6000        34
    32.8200        38
    33.0400        48
    33.2600        30
    33.4800        54
    33.7000        52
    33.9200       114
    34.1400        54
    34.3600        52
    34.5800        58
    34.8000       364
    35.0200        44
    35.2400        94
    35.4600       146
    35.6800        78
    35.9000        54
    36.1200        38
    36.3400        90
    36.5600        78
    36.7800       466
    37.0000        46
    37.2200        40
    37.4400        64
    37.6600        70
    37.8800       228
    38.1000       702
    38.3200        68
    38.5400        40
    38.7600        90
    38.9800        36
    39.2000        42
    39.4200       110
    39.6400       302
    39.8600        48
    40.0800        50
    40.3000        34
    40.5200        76
    40.7400        52
    40.9600        50
    41.1800        66
    41.4000       146
    41.6200       106
    41.8400       464
    42.0600       190
    42.2800        48
    42.5000        44
    42.7200        26
    42.9400        22
    43.1600        76
    43.3800        82
    43.6000        52
    43.8200        50
    44.0400        28
    44.2600        40
    44.4800        18
    44.7000        20
    44.9200        30
    45.1400        38
    45.3600        76
    45.5800        82
    45.8000        34
    46.0200        92
    46.2400       172
    46.4600        72
    46.6800        54
    46.9000        40
    47.1200        22
    47.3400        26
    47.5600        56
    47.7800        44
    48.0000       242
    48.2200       134
    48.4400        68
    48.6600        72
    48.8800        36
    49.1000       122
    49.3200        56
    49.5400        40
    49.7600        64
    49.9800        46
    50.2000        36
    50.4200        34
    50.6400        46
    50.8600        38
    51.0800        38
    51.3000        22
    51.5200        40
    51.7400        58
    51.9600        66
    52.1800        36
    52.4000        30
    52.6200        46
    52.8400        38
    53.0600        24
    53.2800        28
    53.5000       116
    53.7200       100
    53.9400        40
    54.1600        34
    54.3800        40
    54.6000        48
    54.8200        50
    55.0400        42
    55.2600        32
    55.4800        42
    55.7000        36
    55.9200        44
    56.1400       194
    56.3600       136
    56.5800       104
    56.8000        48
    57.0200        34
    57.2400        30
    57.4600        52
    57.6800        68
    57.9000       110
    58.1200        54
    58.3400        72
    58.5600       120
    58.7800       120
    59.0000       256
    59.2200        54
    59.4400        34
    59.6600        48
    59.8800        54
    60.1000        58
    60.3200        66
    60.5400        68
    60.7600       178
    60.9800       104
    61.2000        32
    61.4200        48
    61.6400        22
    61.8600        46
    62.0800        60
    62.3000        56
    62.5200        32
    62.7400        60
    62.9600       144
    63.1800        70
    63.4000        28
    63.6200        30
    63.8400        50
    64.0600        32
    64.2800        42
    64.5000        66
    64.7200       200
    64.9400       174
    65.0000       106