File: sl1/usgs/library06/DESCRIPT/new_xrd_results_to_be_added/Rhonda_Driscoll_xrd_runs/GDS50A---Sapolite-grp..txt
/////////////////////////////////////////////////////////////////////////////////
/// Profile Data Ascii Dump (XRD)                                             ///
/////////////////////////////////////////////////////////////////////////////////

  Group     : Swayze
  Data      : GDS50A
  File Name : GDS50A.RAW

# Profile Datafile
          comment             = Scapolite grp
          date & time         = 08-03-27 07:47:40

# Measurement Condition
    X-ray tube
          target              = Cu
          voltage             = 40.0 (kV)
          current             = 30.0 (mA)
    Slits
          divergence slit     = 2.00000 (deg)
          scatter slit        = 2.00000 (deg)
          receiving slit      = 0.15000 (mm)
    Scanning
          drive axis          = Theta-2Theta
          scan range          =    4.000 -   65.000
          scan mode           = Continuous Scan
          scan speed          =   2.0000 (deg/min)
          sampling pitch      =   0.0200 (deg)
          preset time         =   0.60 (sec)

# Data      [ Total No. = 3051 ]
  <2Theta>   <   I   >
     4.0000       138
     4.2200       186
     4.4400       154
     4.6600       178
     4.8800       166
     5.1000       168
     5.3200       154
     5.5400       122
     5.7600       158
     5.9800       146
     6.2000       146
     6.4200       144
     6.6400       118
     6.8600       120
     7.0800       132
     7.3000       122
     7.5200       110
     7.7400        98
     7.9600        90
     8.1800        98
     8.4000       108
     8.6200       116
     8.8400       114
     9.0600       122
     9.2800        96
     9.5000       112
     9.7200       106
     9.9400        88
    10.1600        96
    10.3800        92
    10.6000       104
    10.8200        72
    11.0400        82
    11.2600        76
    11.4800        78
    11.7000        80
    11.9200        78
    12.1400        70
    12.3600        80
    12.5800        66
    12.8000        78
    13.0200        62
    13.2400        60
    13.4600        68
    13.6800       122
    13.9000        64
    14.1200        80
    14.3400        74
    14.5600       208
    14.7800        60
    15.0000        52
    15.2200        62
    15.4400        62
    15.6600        50
    15.8800        54
    16.1000        54
    16.3200        50
    16.5400        54
    16.7600        60
    16.9800        54
    17.2000        56
    17.4200        52
    17.6400        54
    17.8600        52
    18.0800        46
    18.3000        48
    18.5200        42
    18.7400        54
    18.9600        48
    19.1800        42
    19.4000        38
    19.6200        40
    19.8400        50
    20.0600        84
    20.2800        50
    20.5000        54
    20.7200        84
    20.9400        50
    21.1600        38
    21.3800        36
    21.6000        42
    21.8200        40
    22.0400        28
    22.2600        48
    22.4800        38
    22.7000        56
    22.9200       110
    23.1400       444
    23.3600        78
    23.5800        56
    23.8000        62
    24.0200        36
    24.2400        52
    24.4600        70
    24.6800        96
    24.9000       466
    25.1200        66
    25.3400       244
    25.5600      2048
    25.7800       128
    26.0000        70
    26.2200        46
    26.4400        36
    26.6600        40
    26.8800        26
    27.1000        44
    27.3200        44
    27.5400        36
    27.7600        40
    27.9800        44
    28.2000        40
    28.4200        46
    28.6400       108
    28.8600       336
    29.0800       718
    29.3000       260
    29.5200       500
    29.7400        52
    29.9600        26
    30.1800        26
    30.4000        28
    30.6200        42
    30.8400        30
    31.0600        52
    31.2800       222
    31.5000        84
    31.7200        38
    31.9400        24
    32.1600        34
    32.3800        56
    32.6000       334
    32.8200       128
    33.0400       356
    33.2600       448
    33.4800        46
    33.7000        36
    33.9200        32
    34.1400        24
    34.3600        28
    34.5800        36
    34.8000        30
    35.0200        46
    35.2400        40
    35.4600        28
    35.6800        42
    35.9000        22
    36.1200        36
    36.3400        28
    36.5600        24
    36.7800        38
    37.0000        38
    37.2200        40
    37.4400        30
    37.6600        44
    37.8800        72
    38.1000        38
    38.3200        40
    38.5400        28
    38.7600        48
    38.9800       196
    39.2000        66
    39.4200        80
    39.6400        34
    39.8600        22
    40.0800        30
    40.3000        38
    40.5200        40
    40.7400        48
    40.9600        58
    41.1800        30
    41.4000        36
    41.6200        38
    41.8400       188
    42.0600       292
    42.2800        62
    42.5000        40
    42.7200        32
    42.9400        26
    43.1600        36
    43.3800        40
    43.6000        98
    43.8200        34
    44.0400        34
    44.2600        36
    44.4800        36
    44.7000       102
    44.9200       200
    45.1400        54
    45.3600        34
    45.5800        24
    45.8000        38
    46.0200        28
    46.2400        34
    46.4600        28
    46.6800        48
    46.9000        44
    47.1200       266
    47.3400       482
    47.5600       206
    47.7800       306
    48.0000       168
    48.2200        32
    48.4400        32
    48.6600        36
    48.8800        42
    49.1000        38
    49.3200        38
    49.5400        42
    49.7600        68
    49.9800       168
    50.2000        58
    50.4200        38
    50.6400        36
    50.8600        28
    51.0800        34
    51.3000        38
    51.5200        22
    51.7400        20
    51.9600        72
    52.1800       118
    52.4000        46
    52.6200        44
    52.8400        30
    53.0600        24
    53.2800        42
    53.5000       124
    53.7200        52
    53.9400        36
    54.1600        30
    54.3800        36
    54.6000       114
    54.8200        50
    55.0400        18
    55.2600        30
    55.4800        26
    55.7000        40
    55.9200        26
    56.1400        24
    56.3600        32
    56.5800       138
    56.8000        64
    57.0200        28
    57.2400       122
    57.4600        52
    57.6800        42
    57.9000        50
    58.1200        46
    58.3400        36
    58.5600        36
    58.7800        34
    59.0000       284
    59.2200        82
    59.4400        34
    59.6600        34
    59.8800        24
    60.1000        42
    60.3200        34
    60.5400        30
    60.7600        52
    60.9800        86
    61.2000        92
    61.4200        46
    61.6400        30
    61.8600        22
    62.0800        30
    62.3000        42
    62.5200        40
    62.7400        48
    62.9600        40
    63.1800        82
    63.4000       198
    63.6200       194
    63.8400        56
    64.0600        38
    64.2800        24
    64.5000        24
    64.7200        30
    64.9400        26
    65.0000        36