File: sl1/usgs/library06/DESCRIPT/new_xrd_results_to_be_added/Rhonda_Driscoll_xrd_runs/GDS68---C-lamp-black.txt
/////////////////////////////////////////////////////////////////////////////////
/// Profile Data Ascii Dump (XRD)                                             ///
/////////////////////////////////////////////////////////////////////////////////

  Group     : Swayze
  Data      : GDS68
  File Name : GDS68.RAW

# Profile Datafile
          comment             = C lamp black
          date & time         = 08-03-14 07:57:50

# Measurement Condition
    X-ray tube
          target              = Cu
          voltage             = 40.0 (kV)
          current             = 30.0 (mA)
    Slits
          divergence slit     = 2.00000 (deg)
          scatter slit        = 2.00000 (deg)
          receiving slit      = 0.15000 (mm)
    Scanning
          drive axis          = Theta-2Theta
          scan range          =    4.000 -   65.000
          scan mode           = Continuous Scan
          scan speed          =   2.0000 (deg/min)
          sampling pitch      =   0.0200 (deg)
          preset time         =   0.60 (sec)

# Data      [ Total No. = 3051 ]
  <2Theta>   <   I   >
     4.0000       506
     4.2200       494
     4.4400       504
     4.6600       434
     4.8800       462
     5.1000       444
     5.3200       470
     5.5400       450
     5.7600       406
     5.9800       376
     6.2000       374
     6.4200       396
     6.6400       424
     6.8600       330
     7.0800       340
     7.3000       342
     7.5200       370
     7.7400       312
     7.9600       328
     8.1800       348
     8.4000       328
     8.6200       298
     8.8400       320
     9.0600       342
     9.2800       324
     9.5000       312
     9.7200       294
     9.9400       286
    10.1600       288
    10.3800       306
    10.6000       308
    10.8200       288
    11.0400       290
    11.2600       288
    11.4800       262
    11.7000       284
    11.9200       278
    12.1400       298
    12.3600       268
    12.5800       252
    12.8000       272
    13.0200       236
    13.2400       260
    13.4600       284
    13.6800       268
    13.9000       254
    14.1200       252
    14.3400       282
    14.5600       256
    14.7800       300
    15.0000       258
    15.2200       300
    15.4400       292
    15.6600       270
    15.8800       288
    16.1000       298
    16.3200       294
    16.5400       294
    16.7600       274
    16.9800       296
    17.2000       310
    17.4200       268
    17.6400       314
    17.8600       326
    18.0800       310
    18.3000       336
    18.5200       350
    18.7400       362
    18.9600       348
    19.1800       388
    19.4000       368
    19.6200       414
    19.8400       380
    20.0600       452
    20.2800       418
    20.5000       488
    20.7200       506
    20.9400       494
    21.1600       486
    21.3800       552
    21.6000       562
    21.8200       578
    22.0400       642
    22.2600       682
    22.4800       682
    22.7000       692
    22.9200       732
    23.1400       756
    23.3600       776
    23.5800       772
    23.8000       910
    24.0200       912
    24.2400       962
    24.4600       982
    24.6800      1002
    24.9000       960
    25.1200       974
    25.3400       944
    25.5600       928
    25.7800       830
    26.0000       872
    26.2200       752
    26.4400       658
    26.6600       604
    26.8800       590
    27.1000       564
    27.3200       464
    27.5400       474
    27.7600       434
    27.9800       440
    28.2000       368
    28.4200       344
    28.6400       292
    28.8600       266
    29.0800       252
    29.3000       236
    29.5200       214
    29.7400       212
    29.9600       188
    30.1800       186
    30.4000       178
    30.6200       172
    30.8400       172
    31.0600       168
    31.2800       162
    31.5000       158
    31.7200       144
    31.9400       134
    32.1600       154
    32.3800       144
    32.6000       142
    32.8200       114
    33.0400       118
    33.2600       122
    33.4800       130
    33.7000       106
    33.9200       102
    34.1400       130
    34.3600       128
    34.5800       110
    34.8000       116
    35.0200       118
    35.2400       126
    35.4600       128
    35.6800       112
    35.9000       130
    36.1200       112
    36.3400       124
    36.5600       118
    36.7800       128
    37.0000       140
    37.2200       196
    37.4400       428
    37.6600      3410
    37.8800      1882
    38.1000       246
    38.3200       174
    38.5400       150
    38.7600       150
    38.9800       132
    39.2000       166
    39.4200       144
    39.6400       144
    39.8600       174
    40.0800       154
    40.3000       150
    40.5200       166
    40.7400       178
    40.9600       188
    41.1800       202
    41.4000       218
    41.6200       220
    41.8400       216
    42.0600       244
    42.2800       244
    42.5000       242
    42.7200       272
    42.9400       252
    43.1600       280
    43.3800       288
    43.6000       330
    43.8200       888
    44.0400      1920
    44.2600       414
    44.4800       280
    44.7000       262
    44.9200       220
    45.1400       230
    45.3600       198
    45.5800       194
    45.8000       176
    46.0200       176
    46.2400       204
    46.4600       178
    46.6800       170
    46.9000       172
    47.1200       180
    47.3400       184
    47.5600       198
    47.7800       142
    48.0000       130
    48.2200       158
    48.4400       146
    48.6600       160
    48.8800       158
    49.1000       136
    49.3200       162
    49.5400       158
    49.7600       128
    49.9800       132
    50.2000       136
    50.4200       144
    50.6400       122
    50.8600       116
    51.0800       136
    51.3000       134
    51.5200       134
    51.7400       144
    51.9600       136
    52.1800       150
    52.4000       118
    52.6200       116
    52.8400       146
    53.0600       122
    53.2800       126
    53.5000       116
    53.7200       120
    53.9400       108
    54.1600       114
    54.3800        96
    54.6000        98
    54.8200        98
    55.0400       140
    55.2600       110
    55.4800       110
    55.7000       120
    55.9200        94
    56.1400        94
    56.3600        98
    56.5800        96
    56.8000        90
    57.0200       102
    57.2400       100
    57.4600       108
    57.6800        86
    57.9000        76
    58.1200        82
    58.3400       100
    58.5600        80
    58.7800        78
    59.0000        86
    59.2200        74
    59.4400        92
    59.6600        78
    59.8800        74
    60.1000        76
    60.3200        74
    60.5400        66
    60.7600        74
    60.9800        88
    61.2000        62
    61.4200        82
    61.6400        66
    61.8600        80
    62.0800        80
    62.3000        82
    62.5200        54
    62.7400        66
    62.9600        62
    63.1800        80
    63.4000        62
    63.6200        68
    63.8400        76
    64.0600        80
    64.2800       158
    64.5000        96
    64.7200        74
    64.9400        76
    65.0000        62