File: sl1/usgs/library06/DESCRIPT/new_xrd_results_to_be_added/Rhonda_Driscoll_xrd_runs/GDS681---Magnesite.txt
/////////////////////////////////////////////////////////////////////////////////
/// Profile Data Ascii Dump (XRD)                                             ///
/////////////////////////////////////////////////////////////////////////////////

  Group     : Swayze
  Data      : GDS681
  File Name : GDS681.RAW

# Profile Datafile
          comment             = Magnesite
          date & time         = 08-03-12 07:31:19

# Measurement Condition
    X-ray tube
          target              = Cu
          voltage             = 40.0 (kV)
          current             = 30.0 (mA)
    Slits
          divergence slit     = 2.00000 (deg)
          scatter slit        = 2.00000 (deg)
          receiving slit      = 0.15000 (mm)
    Scanning
          drive axis          = Theta-2Theta
          scan range          =    4.000 -   65.000
          scan mode           = Continuous Scan
          scan speed          =   2.0000 (deg/min)
          sampling pitch      =   0.0200 (deg)
          preset time         =   0.60 (sec)

# Data      [ Total No. = 3051 ]
  <2Theta>   <   I   >
     4.0000       236
     4.2200       244
     4.4400       202
     4.6600       220
     4.8800       190
     5.1000       208
     5.3200       200
     5.5400       218
     5.7600       204
     5.9800       200
     6.2000       198
     6.4200       194
     6.6400       192
     6.8600       158
     7.0800       142
     7.3000       164
     7.5200       138
     7.7400       160
     7.9600       144
     8.1800       154
     8.4000       154
     8.6200       122
     8.8400       110
     9.0600       140
     9.2800       124
     9.5000       116
     9.7200       128
     9.9400       120
    10.1600       124
    10.3800       138
    10.6000        96
    10.8200       110
    11.0400       104
    11.2600       106
    11.4800        88
    11.7000       104
    11.9200       106
    12.1400        82
    12.3600       104
    12.5800        94
    12.8000        98
    13.0200        78
    13.2400        70
    13.4600        94
    13.6800        78
    13.9000        86
    14.1200       100
    14.3400        80
    14.5600        74
    14.7800        96
    15.0000        96
    15.2200        92
    15.4400        68
    15.6600        74
    15.8800        80
    16.1000       112
    16.3200        86
    16.5400        82
    16.7600        90
    16.9800        84
    17.2000        96
    17.4200        86
    17.6400        88
    17.8600        92
    18.0800       130
    18.3000        90
    18.5200       108
    18.7400       104
    18.9600       110
    19.1800       132
    19.4000       166
    19.6200       130
    19.8400       150
    20.0600       130
    20.2800       154
    20.5000       160
    20.7200       184
    20.9400       170
    21.1600       166
    21.3800       150
    21.6000       166
    21.8200       172
    22.0400       186
    22.2600       180
    22.4800       144
    22.7000       152
    22.9200       164
    23.1400       164
    23.3600       162
    23.5800       146
    23.8000       138
    24.0200       138
    24.2400       118
    24.4600       108
    24.6800       120
    24.9000       128
    25.1200       122
    25.3400       118
    25.5600       126
    25.7800       118
    26.0000        92
    26.2200       134
    26.4400       112
    26.6600        96
    26.8800       100
    27.1000       102
    27.3200        88
    27.5400        94
    27.7600        98
    27.9800       162
    28.2000       100
    28.4200        88
    28.6400        84
    28.8600        86
    29.0800        82
    29.3000        90
    29.5200        82
    29.7400        82
    29.9600        54
    30.1800        72
    30.4000        80
    30.6200        78
    30.8400       102
    31.0600        78
    31.2800       102
    31.5000        78
    31.7200       108
    31.9400       128
    32.1600       280
    32.3800      1760
    32.6000      2010
    32.8200       160
    33.0400       108
    33.2600        74
    33.4800        94
    33.7000        86
    33.9200       112
    34.1400        86
    34.3600        84
    34.5800        96
    34.8000        96
    35.0200       114
    35.2400        92
    35.4600       166
    35.6800       602
    35.9000       178
    36.1200        94
    36.3400        88
    36.5600        72
    36.7800        62
    37.0000        96
    37.2200        78
    37.4400        82
    37.6600        64
    37.8800        50
    38.1000        64
    38.3200        92
    38.5400       136
    38.7600       214
    38.9800        70
    39.2000        62
    39.4200        62
    39.6400        68
    39.8600        70
    40.0800        78
    40.3000        66
    40.5200        64
    40.7400        60
    40.9600        52
    41.1800        54
    41.4000        72
    41.6200        56
    41.8400        72
    42.0600        66
    42.2800        90
    42.5000       166
    42.7200       978
    42.9400      1200
    43.1600       150
    43.3800        74
    43.6000        62
    43.8200        74
    44.0400        64
    44.2600        60
    44.4800        62
    44.7000        46
    44.9200        52
    45.1400        70
    45.3600        46
    45.5800        48
    45.8000        62
    46.0200        62
    46.2400        70
    46.4600       136
    46.6800       588
    46.9000       148
    47.1200        72
    47.3400        62
    47.5600        52
    47.7800        54
    48.0000        68
    48.2200        50
    48.4400        58
    48.6600        50
    48.8800        60
    49.1000        34
    49.3200        56
    49.5400        60
    49.7600        60
    49.9800        56
    50.2000        56
    50.4200        50
    50.6400        60
    50.8600        58
    51.0800        68
    51.3000       116
    51.5200       186
    51.7400        68
    51.9600        64
    52.1800        64
    52.4000        70
    52.6200        62
    52.8400        64
    53.0600        78
    53.2800       110
    53.5000       278
    53.7200      1302
    53.9400       500
    54.1600        94
    54.3800        78
    54.6000        68
    54.8200        56
    55.0400        62
    55.2600        44
    55.4800        48
    55.7000        58
    55.9200        38
    56.1400        58
    56.3600        52
    56.5800        54
    56.8000        42
    57.0200        46
    57.2400        58
    57.4600        46
    57.6800        42
    57.9000        42
    58.1200        46
    58.3400        48
    58.5600        64
    58.7800        68
    59.0000        64
    59.2200        60
    59.4400        48
    59.6600        66
    59.8800        72
    60.1000        68
    60.3200        66
    60.5400        80
    60.7600        92
    60.9800        90
    61.2000       232
    61.4200       118
    61.6400        72
    61.8600        72
    62.0800       118
    62.3000       262
    62.5200       114
    62.7400        64
    62.9600        54
    63.1800        50
    63.4000        48
    63.6200        44
    63.8400        48
    64.0600        46
    64.2800        52
    64.5000        48
    64.7200        58
    64.9400        46
    65.0000        60