File: sl1/usgs/library06/DESCRIPT/new_xrd_results_to_be_added/Rhonda_Driscoll_xrd_runs/GDS739B.txt
/////////////////////////////////////////////////////////////////////////////////
/// Profile Data Ascii Dump (XRD)                                             ///
/////////////////////////////////////////////////////////////////////////////////

  Group     : Swayze
  Data      : GDS739B
  File Name : GDS739B.RAW

# Profile Datafile
          comment             =
          date & time         = 08-03-11 06:05:48

# Measurement Condition
    X-ray tube
          target              = Cu
          voltage             = 40.0 (kV)
          current             = 30.0 (mA)
    Slits
          divergence slit     = 2.00000 (deg)
          scatter slit        = 2.00000 (deg)
          receiving slit      = 0.15000 (mm)
    Scanning
          drive axis          = Theta-2Theta
          scan range          =    4.000 -   65.000
          scan mode           = Continuous Scan
          scan speed          =   2.0000 (deg/min)
          sampling pitch      =   0.0200 (deg)
          preset time         =   0.60 (sec)

# Data      [ Total No. = 3051 ]
  <2Theta>   <   I   >
     4.0000       186
     4.2200       186
     4.4400       202
     4.6600       188
     4.8800       188
     5.1000       182
     5.3200       150
     5.5400       158
     5.7600       172
     5.9800       176
     6.2000       180
     6.4200       158
     6.6400       144
     6.8600       126
     7.0800       114
     7.3000       126
     7.5200       116
     7.7400       122
     7.9600       106
     8.1800       124
     8.4000       106
     8.6200       108
     8.8400       124
     9.0600       130
     9.2800       124
     9.5000       126
     9.7200       112
     9.9400       108
    10.1600        86
    10.3800       104
    10.6000        98
    10.8200       126
    11.0400        94
    11.2600        94
    11.4800        78
    11.7000       100
    11.9200        78
    12.1400        82
    12.3600        84
    12.5800        76
    12.8000        88
    13.0200        78
    13.2400        84
    13.4600        74
    13.6800        74
    13.9000        50
    14.1200        72
    14.3400        70
    14.5600        70
    14.7800        72
    15.0000        68
    15.2200        68
    15.4400        98
    15.6600       240
    15.8800        60
    16.1000        80
    16.3200        62
    16.5400        66
    16.7600        68
    16.9800        68
    17.2000        94
    17.4200       254
    17.6400       670
    17.8600      1064
    18.0800       316
    18.3000        82
    18.5200        74
    18.7400        62
    18.9600        38
    19.1800        56
    19.4000        50
    19.6200        42
    19.8400        42
    20.0600        50
    20.2800        70
    20.5000        50
    20.7200        48
    20.9400        68
    21.1600        38
    21.3800        42
    21.6000        54
    21.8200        36
    22.0400        46
    22.2600        44
    22.4800        42
    22.7000        66
    22.9200        58
    23.1400        62
    23.3600        40
    23.5800        42
    23.8000        42
    24.0200        48
    24.2400        58
    24.4600        70
    24.6800        80
    24.9000       114
    25.1200       386
    25.3400      1482
    25.5600       168
    25.7800        66
    26.0000        52
    26.2200        50
    26.4400        66
    26.6600        48
    26.8800        32
    27.1000        50
    27.3200        46
    27.5400        42
    27.7600        36
    27.9800        48
    28.2000        52
    28.4200        80
    28.6400        70
    28.8600       180
    29.0800       278
    29.3000       320
    29.5200       542
    29.7400       756
    29.9600       938
    30.1800       592
    30.4000       190
    30.6200        88
    30.8400        62
    31.0600       132
    31.2800       400
    31.5000        84
    31.7200       122
    31.9400        64
    32.1600        36
    32.3800        32
    32.6000        20
    32.8200        38
    33.0400        32
    33.2600        32
    33.4800        28
    33.7000        42
    33.9200        32
    34.1400        28
    34.3600        32
    34.5800        40
    34.8000        28
    35.0200        40
    35.2400        24
    35.4600        38
    35.6800        40
    35.9000        52
    36.1200       138
    36.3400        48
    36.5600        40
    36.7800        28
    37.0000        26
    37.2200        22
    37.4400        34
    37.6600        26
    37.8800        36
    38.1000        42
    38.3200        68
    38.5400       304
    38.7600        52
    38.9800        32
    39.2000        40
    39.4200        50
    39.6400        54
    39.8600       172
    40.0800       416
    40.3000       196
    40.5200       138
    40.7400       274
    40.9600        74
    41.1800       120
    41.4000        46
    41.6200        36
    41.8400        30
    42.0600        28
    42.2800        26
    42.5000        30
    42.7200        32
    42.9400        34
    43.1600       114
    43.3800        60
    43.6000        24
    43.8200        24
    44.0400        36
    44.2600        34
    44.4800        38
    44.7000        36
    44.9200        34
    45.1400        36
    45.3600       100
    45.5800        34
    45.8000        38
    46.0200        36
    46.2400        66
    46.4600        74
    46.6800       132
    46.9000       130
    47.1200        98
    47.3400       112
    47.5600       132
    47.7800       202
    48.0000       148
    48.2200       158
    48.4400       242
    48.6600       226
    48.8800        64
    49.1000        72
    49.3200        50
    49.5400        36
    49.7600        42
    49.9800        28
    50.2000        24
    50.4200        52
    50.6400        48
    50.8600        34
    51.0800        66
    51.3000        58
    51.5200        46
    51.7400        56
    51.9600       114
    52.1800       266
    52.4000       124
    52.6200        90
    52.8400        50
    53.0600        50
    53.2800        58
    53.5000        32
    53.7200        38
    53.9400        40
    54.1600        34
    54.3800        42
    54.6000        50
    54.8200        42
    55.0400        52
    55.2600        66
    55.4800       100
    55.7000       170
    55.9200        66
    56.1400        44
    56.3600        48
    56.5800        48
    56.8000        22
    57.0200        38
    57.2400        38
    57.4600        38
    57.6800        68
    57.9000        50
    58.1200        42
    58.3400        50
    58.5600        48
    58.7800        78
    59.0000        82
    59.2200        74
    59.4400        74
    59.6600        66
    59.8800        58
    60.1000        38
    60.3200        46
    60.5400       108
    60.7600        62
    60.9800        50
    61.2000        62
    61.4200        66
    61.6400        50
    61.8600        56
    62.0800        94
    62.3000       114
    62.5200       136
    62.7400       184
    62.9600       166
    63.1800       112
    63.4000        72
    63.6200        50
    63.8400        38
    64.0600        36
    64.2800        26
    64.5000        32
    64.7200        38
    64.9400        28
    65.0000        28