File: sl1/usgs/library06/DESCRIPT/new_xrd_results_to_be_added/Rhonda_Driscoll_xrd_runs/GDS7---Scolecite.txt
/////////////////////////////////////////////////////////////////////////////////
/// Profile Data Ascii Dump (XRD)                                             ///
/////////////////////////////////////////////////////////////////////////////////

  Group     : Swayze
  Data      : GDS7
  File Name : GDS7.RAW

# Profile Datafile
          comment             = Scolecite
          date & time         = 08-03-25 05:51:12

# Measurement Condition
    X-ray tube
          target              = Cu
          voltage             = 40.0 (kV)
          current             = 30.0 (mA)
    Slits
          divergence slit     = 2.00000 (deg)
          scatter slit        = 2.00000 (deg)
          receiving slit      = 0.15000 (mm)
    Scanning
          drive axis          = Theta-2Theta
          scan range          =    4.000 -   65.000
          scan mode           = Continuous Scan
          scan speed          =   2.0000 (deg/min)
          sampling pitch      =   0.0200 (deg)
          preset time         =   0.60 (sec)

# Data      [ Total No. = 3051 ]
  <2Theta>   <   I   >
     4.0000       210
     4.2200       200
     4.4400       184
     4.6600       148
     4.8800       174
     5.1000       148
     5.3200       172
     5.5400       160
     5.7600       144
     5.9800       166
     6.2000       132
     6.4200       132
     6.6400       116
     6.8600       120
     7.0800       122
     7.3000       128
     7.5200        92
     7.7400       112
     7.9600       132
     8.1800        96
     8.4000       108
     8.6200       116
     8.8400       110
     9.0600       106
     9.2800       112
     9.5000       120
     9.7200       108
     9.9400        96
    10.1600        96
    10.3800       116
    10.6000        96
    10.8200        88
    11.0400       100
    11.2600        90
    11.4800        86
    11.7000        86
    11.9200        86
    12.1400        80
    12.3600        76
    12.5800        66
    12.8000        98
    13.0200       290
    13.2400      1880
    13.4600       106
    13.6800        68
    13.9000        66
    14.1200        58
    14.3400        62
    14.5600        74
    14.7800       138
    15.0000       248
    15.2200        64
    15.4400        46
    15.6600        58
    15.8800        54
    16.1000        48
    16.3200        56
    16.5400        66
    16.7600        64
    16.9800        72
    17.2000        38
    17.4200        66
    17.6400        54
    17.8600        52
    18.0800        44
    18.3000        80
    18.5200       552
    18.7400       186
    18.9600       346
    19.1800       142
    19.4000        72
    19.6200        62
    19.8400       136
    20.0600       350
    20.2800       180
    20.5000        46
    20.7200        90
    20.9400       604
    21.1600       138
    21.3800        90
    21.6000        46
    21.8200        68
    22.0400        58
    22.2600        40
    22.4800        38
    22.7000        30
    22.9200        48
    23.1400        30
    23.3600        52
    23.5800        42
    23.8000        48
    24.0200        64
    24.2400       104
    24.4600        46
    24.6800        44
    24.9000        30
    25.1200        32
    25.3400        40
    25.5600        36
    25.7800        34
    26.0000        38
    26.2200        24
    26.4400        46
    26.6600        82
    26.8800       126
    27.1000        52
    27.3200        70
    27.5400       236
    27.7600       116
    27.9800        84
    28.2000        90
    28.4200        34
    28.6400        62
    28.8600       126
    29.0800        84
    29.3000        38
    29.5200        44
    29.7400       216
    29.9600        64
    30.1800       140
    30.4000       400
    30.6200       530
    30.8400       648
    31.0600       284
    31.2800       102
    31.5000        32
    31.7200        28
    31.9400        32
    32.1600        30
    32.3800        32
    32.6000        26
    32.8200        28
    33.0400        40
    33.2600        42
    33.4800        36
    33.7000        24
    33.9200        26
    34.1400        46
    34.3600        82
    34.5800       138
    34.8000        30
    35.0200        44
    35.2400        24
    35.4600        36
    35.6800        38
    35.9000        58
    36.1200       138
    36.3400        40
    36.5600        80
    36.7800        56
    37.0000       108
    37.2200        26
    37.4400        28
    37.6600        44
    37.8800        64
    38.1000        32
    38.3200        36
    38.5400        66
    38.7600        84
    38.9800        74
    39.2000       112
    39.4200        84
    39.6400        90
    39.8600        70
    40.0800        48
    40.3000        38
    40.5200       148
    40.7400       764
    40.9600       102
    41.1800        74
    41.4000        40
    41.6200        34
    41.8400        40
    42.0600        48
    42.2800        20
    42.5000        34
    42.7200        94
    42.9400        30
    43.1600        34
    43.3800        76
    43.6000       124
    43.8200        40
    44.0400        58
    44.2600        60
    44.4800       160
    44.7000        28
    44.9200        32
    45.1400        26
    45.3600        70
    45.5800        34
    45.8000        26
    46.0200        28
    46.2400       102
    46.4600        32
    46.6800        38
    46.9000        22
    47.1200        32
    47.3400        42
    47.5600        76
    47.7800       110
    48.0000        56
    48.2200        66
    48.4400       102
    48.6600       352
    48.8800       308
    49.1000        40
    49.3200        42
    49.5400        50
    49.7600        42
    49.9800       260
    50.2000       102
    50.4200        90
    50.6400        36
    50.8600        38
    51.0800        18
    51.3000        52
    51.5200       168
    51.7400        74
    51.9600       154
    52.1800        98
    52.4000        82
    52.6200        26
    52.8400        38
    53.0600       118
    53.2800        20
    53.5000        22
    53.7200        30
    53.9400        30
    54.1600        36
    54.3800        36
    54.6000       100
    54.8200        56
    55.0400        54
    55.2600        94
    55.4800        74
    55.7000        38
    55.9200       104
    56.1400        86
    56.3600        50
    56.5800        66
    56.8000       298
    57.0200        94
    57.2400        56
    57.4600        82
    57.6800        96
    57.9000        76
    58.1200        58
    58.3400        48
    58.5600        36
    58.7800        16
    59.0000        30
    59.2200        34
    59.4400        24
    59.6600        40
    59.8800        52
    60.1000        32
    60.3200        58
    60.5400        56
    60.7600        34
    60.9800        38
    61.2000        30
    61.4200        28
    61.6400        42
    61.8600        96
    62.0800        48
    62.3000        28
    62.5200        92
    62.7400        64
    62.9600        98
    63.1800       160
    63.4000       106
    63.6200        42
    63.8400        40
    64.0600        32
    64.2800        24
    64.5000        28
    64.7200        28
    64.9400        66
    65.0000        60