File: sl1/usgs/library06/DESCRIPT/new_xrd_results_to_be_added/Rhonda_Driscoll_xrd_runs/GDS764---Chlorite.txt
/////////////////////////////////////////////////////////////////////////////////
/// Profile Data Ascii Dump (XRD)                                             ///
/////////////////////////////////////////////////////////////////////////////////

  Group     : Swayze
  Data      : GDS764
  File Name : GDS764.RAW

# Profile Datafile
          comment             = Chlorite
          date & time         = 08-03-12 05:58:27

# Measurement Condition
    X-ray tube
          target              = Cu
          voltage             = 40.0 (kV)
          current             = 30.0 (mA)
    Slits
          divergence slit     = 2.00000 (deg)
          scatter slit        = 2.00000 (deg)
          receiving slit      = 0.15000 (mm)
    Scanning
          drive axis          = Theta-2Theta
          scan range          =    4.000 -   65.000
          scan mode           = Continuous Scan
          scan speed          =   2.0000 (deg/min)
          sampling pitch      =   0.0200 (deg)
          preset time         =   0.60 (sec)

# Data      [ Total No. = 3051 ]
  <2Theta>   <   I   >
     4.0000       212
     4.2200       222
     4.4400       198
     4.6600       196
     4.8800       188
     5.1000       238
     5.3200       184
     5.5400       232
     5.7600       284
     5.9800       518
     6.2000       800
     6.4200       178
     6.6400       162
     6.8600       110
     7.0800       144
     7.3000       110
     7.5200       126
     7.7400       136
     7.9600       108
     8.1800       112
     8.4000       112
     8.6200       128
     8.8400       120
     9.0600       114
     9.2800       120
     9.5000       108
     9.7200       118
     9.9400       132
    10.1600       106
    10.3800       126
    10.6000       110
    10.8200       104
    11.0400       100
    11.2600       110
    11.4800       124
    11.7000       148
    11.9200       204
    12.1400       518
    12.3600      1760
    12.5800       222
    12.8000        92
    13.0200        78
    13.2400        84
    13.4600        64
    13.6800        86
    13.9000        70
    14.1200        72
    14.3400        82
    14.5600        60
    14.7800        60
    15.0000        56
    15.2200        42
    15.4400        76
    15.6600        70
    15.8800        46
    16.1000        48
    16.3200        68
    16.5400        44
    16.7600        66
    16.9800        50
    17.2000        58
    17.4200        58
    17.6400        74
    17.8600        76
    18.0800       108
    18.3000       284
    18.5200       938
    18.7400       936
    18.9600       180
    19.1800       270
    19.4000       208
    19.6200       154
    19.8400       138
    20.0600       112
    20.2800       108
    20.5000       136
    20.7200       128
    20.9400       112
    21.1600       110
    21.3800       100
    21.6000       104
    21.8200       106
    22.0400        94
    22.2600        98
    22.4800        90
    22.7000        86
    22.9200        82
    23.1400       104
    23.3600        96
    23.5800       110
    23.8000        88
    24.0200       108
    24.2400       100
    24.4600       116
    24.6800       338
    24.9000      1670
    25.1200       686
    25.3400       166
    25.5600       120
    25.7800        94
    26.0000       104
    26.2200        78
    26.4400        74
    26.6600        64
    26.8800        74
    27.1000        72
    27.3200        72
    27.5400        52
    27.7600        74
    27.9800        60
    28.2000        66
    28.4200        62
    28.6400        56
    28.8600        58
    29.0800        66
    29.3000        58
    29.5200        58
    29.7400        48
    29.9600        62
    30.1800        60
    30.4000        66
    30.6200        70
    30.8400        82
    31.0600       122
    31.2800       446
    31.5000       304
    31.7200        76
    31.9400        76
    32.1600        58
    32.3800        68
    32.6000        64
    32.8200        50
    33.0400        62
    33.2600        60
    33.4800        72
    33.7000       122
    33.9200        72
    34.1400        80
    34.3600       110
    34.5800       262
    34.8000       228
    35.0200       208
    35.2400       624
    35.4600       230
    35.6800       118
    35.9000       102
    36.1200        76
    36.3400       112
    36.5600       232
    36.7800       496
    37.0000       210
    37.2200       102
    37.4400       126
    37.6600       234
    37.8800       210
    38.1000        88
    38.3200        52
    38.5400        58
    38.7600        42
    38.9800        60
    39.2000        68
    39.4200        64
    39.6400       130
    39.8600       226
    40.0800       108
    40.3000        62
    40.5200        56
    40.7400        54
    40.9600        60
    41.1800        62
    41.4000        44
    41.6200        56
    41.8400        52
    42.0600        54
    42.2800        50
    42.5000        42
    42.7200        62
    42.9400        48
    43.1600        72
    43.3800        74
    43.6000        86
    43.8200       100
    44.0400        92
    44.2600        86
    44.4800       180
    44.7000       166
    44.9200       266
    45.1400       516
    45.3600       326
    45.5800       122
    45.8000        76
    46.0200        62
    46.2400        78
    46.4600        56
    46.6800        64
    46.9000        52
    47.1200        62
    47.3400        54
    47.5600        38
    47.7800        64
    48.0000       100
    48.2200       170
    48.4400       138
    48.6600        68
    48.8800        48
    49.1000        56
    49.3200        54
    49.5400        90
    49.7600       154
    49.9800       174
    50.2000       128
    50.4200        68
    50.6400        44
    50.8600        44
    51.0800        52
    51.3000        66
    51.5200        38
    51.7400        34
    51.9600        38
    52.1800        48
    52.4000        68
    52.6200        70
    52.8400        74
    53.0600        82
    53.2800        74
    53.5000        76
    53.7200        68
    53.9400        58
    54.1600        62
    54.3800        50
    54.6000        58
    54.8200        74
    55.0400       114
    55.2600        80
    55.4800        64
    55.7000        66
    55.9200        44
    56.1400        58
    56.3600        52
    56.5800        54
    56.8000        54
    57.0200        48
    57.2400        60
    57.4600        54
    57.6800        52
    57.9000        74
    58.1200        78
    58.3400       110
    58.5600       168
    58.7800       312
    59.0000       274
    59.2200       140
    59.4400       122
    59.6600        74
    59.8800       112
    60.1000       366
    60.3200       304
    60.5400       114
    60.7600        82
    60.9800        70
    61.2000        72
    61.4200        80
    61.6400       124
    61.8600       112
    62.0800        66
    62.3000        56
    62.5200        58
    62.7400        50
    62.9600        50
    63.1800        42
    63.4000        46
    63.6200        78
    63.8400        60
    64.0600        44
    64.2800        48
    64.5000        42
    64.7200        50
    64.9400        48
    65.0000        48