File: sl1/usgs/library06/DESCRIPT/new_xrd_results_to_be_added/Rhonda_Driscoll_xrd_runs/GDS819---Palygorskite.txt
/////////////////////////////////////////////////////////////////////////////////
/// Profile Data Ascii Dump (XRD)                                             ///
/////////////////////////////////////////////////////////////////////////////////

  Group     : Swayze
  Data      : GDS819
  File Name : GDS819.RAW

# Profile Datafile
          comment             = Palygorskite
          date & time         = 08-04-01 05:46:03

# Measurement Condition
    X-ray tube
          target              = Cu
          voltage             = 40.0 (kV)
          current             = 30.0 (mA)
    Slits
          divergence slit     = 2.00000 (deg)
          scatter slit        = 2.00000 (deg)
          receiving slit      = 0.15000 (mm)
    Scanning
          drive axis          = Theta-2Theta
          scan range          =    4.000 -   65.000
          scan mode           = Continuous Scan
          scan speed          =   2.0000 (deg/min)
          sampling pitch      =   0.0200 (deg)
          preset time         =   0.60 (sec)

# Data      [ Total No. = 3051 ]
  <2Theta>   <   I   >
     4.0000       290
     4.2200       278
     4.4400       234
     4.6600       226
     4.8800       232
     5.1000       216
     5.3200       242
     5.5400       238
     5.7600       256
     5.9800       264
     6.2000       246
     6.4200       238
     6.6400       254
     6.8600       248
     7.0800       228
     7.3000       232
     7.5200       260
     7.7400       294
     7.9600       408
     8.1800       728
     8.4000      1010
     8.6200       514
     8.8400       174
     9.0600       152
     9.2800       128
     9.5000       130
     9.7200       120
     9.9400       138
    10.1600       114
    10.3800       100
    10.6000        84
    10.8200        98
    11.0400       114
    11.2600        80
    11.4800        92
    11.7000        86
    11.9200        90
    12.1400        80
    12.3600        74
    12.5800       102
    12.8000        78
    13.0200       100
    13.2400        92
    13.4600       104
    13.6800       150
    13.9000       154
    14.1200        86
    14.3400        92
    14.5600        56
    14.7800        74
    15.0000        60
    15.2200        74
    15.4400        72
    15.6600        66
    15.8800        66
    16.1000        84
    16.3200       146
    16.5400        96
    16.7600        70
    16.9800        60
    17.2000        76
    17.4200        90
    17.6400        54
    17.8600        60
    18.0800        66
    18.3000        54
    18.5200        64
    18.7400        62
    18.9600        70
    19.1800        70
    19.4000        72
    19.6200       132
    19.8400       244
    20.0600       136
    20.2800        96
    20.5000       108
    20.7200       202
    20.9400       148
    21.1600        72
    21.3800        82
    21.6000        60
    21.8200        58
    22.0400        58
    22.2600        54
    22.4800        48
    22.7000        48
    22.9200        62
    23.1400        50
    23.3600        72
    23.5800        98
    23.8000       100
    24.0200       158
    24.2400       136
    24.4600        84
    24.6800        68
    24.9000        66
    25.1200        64
    25.3400        72
    25.5600        60
    25.7800        78
    26.0000        62
    26.2200        94
    26.4400        96
    26.6600        90
    26.8800       104
    27.1000        98
    27.3200       112
    27.5400       134
    27.7600       126
    27.9800       146
    28.2000       128
    28.4200       106
    28.6400       134
    28.8600       112
    29.0800        60
    29.3000        50
    29.5200        56
    29.7400        48
    29.9600        58
    30.1800        54
    30.4000        58
    30.6200        60
    30.8400        54
    31.0600        48
    31.2800        44
    31.5000        38
    31.7200        38
    31.9400        40
    32.1600        44
    32.3800        34
    32.6000        54
    32.8200        56
    33.0400        60
    33.2600        90
    33.4800        96
    33.7000        70
    33.9200        74
    34.1400        90
    34.3600        92
    34.5800       100
    34.8000       108
    35.0200       118
    35.2400       222
    35.4600       168
    35.6800        82
    35.9000        52
    36.1200        52
    36.3400        36
    36.5600        68
    36.7800        62
    37.0000        88
    37.2200        86
    37.4400        68
    37.6600        72
    37.8800        44
    38.1000        38
    38.3200        48
    38.5400        34
    38.7600        36
    38.9800        28
    39.2000        20
    39.4200        50
    39.6400        52
    39.8600        46
    40.0800        54
    40.3000        74
    40.5200        56
    40.7400        62
    40.9600        50
    41.1800        54
    41.4000        44
    41.6200        60
    41.8400        64
    42.0600        68
    42.2800        36
    42.5000        44
    42.7200        44
    42.9400        44
    43.1600        34
    43.3800        38
    43.6000        30
    43.8200        38
    44.0400        36
    44.2600        48
    44.4800        52
    44.7000        60
    44.9200        54
    45.1400        56
    45.3600        34
    45.5800        32
    45.8000        26
    46.0200        28
    46.2400        46
    46.4600        42
    46.6800        26
    46.9000        36
    47.1200        24
    47.3400        30
    47.5600        42
    47.7800        40
    48.0000        44
    48.2200        38
    48.4400        28
    48.6600        44
    48.8800        38
    49.1000        32
    49.3200        30
    49.5400        30
    49.7600        46
    49.9800        30
    50.2000        36
    50.4200        36
    50.6400        28
    50.8600        34
    51.0800        36
    51.3000        28
    51.5200        32
    51.7400        38
    51.9600        28
    52.1800        42
    52.4000        42
    52.6200        40
    52.8400        38
    53.0600        26
    53.2800        34
    53.5000        42
    53.7200        50
    53.9400        22
    54.1600        30
    54.3800        42
    54.6000        38
    54.8200        48
    55.0400        38
    55.2600        40
    55.4800        42
    55.7000        44
    55.9200        40
    56.1400        32
    56.3600        38
    56.5800        30
    56.8000        34
    57.0200        36
    57.2400        42
    57.4600        36
    57.6800        44
    57.9000        30
    58.1200        34
    58.3400        38
    58.5600        50
    58.7800        56
    59.0000        46
    59.2200        64
    59.4400        48
    59.6600        48
    59.8800        34
    60.1000        42
    60.3200        30
    60.5400        36
    60.7600        36
    60.9800        24
    61.2000        46
    61.4200        42
    61.6400        52
    61.8600        50
    62.0800        36
    62.3000        62
    62.5200        46
    62.7400        42
    62.9600        30
    63.1800        42
    63.4000        36
    63.6200        26
    63.8400        40
    64.0600        24
    64.2800        36
    64.5000        30
    64.7200        24
    64.9400        44
    65.0000        38