File: sl1/usgs/library06/DESCRIPT/new_xrd_results_to_be_added/Rhonda_Driscoll_xrd_runs/GDS818---Palygorskite.txt
/////////////////////////////////////////////////////////////////////////////////
/// Profile Data Ascii Dump (XRD)                                             ///
/////////////////////////////////////////////////////////////////////////////////

  Group     : Swayze
  Data      : GDS818
  File Name : GDS818.RAW

# Profile Datafile
          comment             = Palygorskite
          date & time         = 08-04-01 06:17:01

# Measurement Condition
    X-ray tube
          target              = Cu
          voltage             = 40.0 (kV)
          current             = 30.0 (mA)
    Slits
          divergence slit     = 2.00000 (deg)
          scatter slit        = 2.00000 (deg)
          receiving slit      = 0.15000 (mm)
    Scanning
          drive axis          = Theta-2Theta
          scan range          =    4.000 -   65.000
          scan mode           = Continuous Scan
          scan speed          =   2.0000 (deg/min)
          sampling pitch      =   0.0200 (deg)
          preset time         =   0.60 (sec)

# Data      [ Total No. = 3051 ]
  <2Theta>   <   I   >
     4.0000       234
     4.2200       240
     4.4400       188
     4.6600       200
     4.8800       170
     5.1000       176
     5.3200       194
     5.5400       192
     5.7600       162
     5.9800       172
     6.2000       178
     6.4200       160
     6.6400       154
     6.8600       162
     7.0800       140
     7.3000       136
     7.5200       150
     7.7400       240
     7.9600       316
     8.1800       532
     8.4000      1200
     8.6200       822
     8.8400       210
     9.0600       162
     9.2800       150
     9.5000       122
     9.7200       118
     9.9400       102
    10.1600       104
    10.3800       104
    10.6000       108
    10.8200       110
    11.0400        98
    11.2600        72
    11.4800       128
    11.7000        96
    11.9200       106
    12.1400        84
    12.3600        82
    12.5800        70
    12.8000        70
    13.0200        76
    13.2400        84
    13.4600       100
    13.6800       158
    13.9000       286
    14.1200       146
    14.3400        88
    14.5600        84
    14.7800        68
    15.0000        62
    15.2200        62
    15.4400        68
    15.6600        50
    15.8800        82
    16.1000       100
    16.3200       214
    16.5400        98
    16.7600        78
    16.9800        68
    17.2000        68
    17.4200        56
    17.6400        68
    17.8600        58
    18.0800        58
    18.3000        60
    18.5200        66
    18.7400        66
    18.9600        60
    19.1800        70
    19.4000        68
    19.6200       172
    19.8400       428
    20.0600       122
    20.2800        80
    20.5000        96
    20.7200       104
    20.9400       106
    21.1600       170
    21.3800       200
    21.6000       150
    21.8200        82
    22.0400        92
    22.2600        62
    22.4800        54
    22.7000        66
    22.9200        60
    23.1400        52
    23.3600        58
    23.5800        48
    23.8000        52
    24.0200        48
    24.2400       134
    24.4600       134
    24.6800        48
    24.9000        58
    25.1200        58
    25.3400        54
    25.5600        52
    25.7800        84
    26.0000        58
    26.2200        60
    26.4400        74
    26.6600        86
    26.8800        84
    27.1000        92
    27.3200       130
    27.5400       150
    27.7600       202
    27.9800       286
    28.2000       320
    28.4200       138
    28.6400        92
    28.8600        58
    29.0800        72
    29.3000        58
    29.5200        62
    29.7400        82
    29.9600        80
    30.1800        54
    30.4000        46
    30.6200        44
    30.8400        42
    31.0600        48
    31.2800        32
    31.5000        32
    31.7200        42
    31.9400        34
    32.1600        36
    32.3800        36
    32.6000        40
    32.8200        70
    33.0400        54
    33.2600        48
    33.4800        40
    33.7000        58
    33.9200        88
    34.1400       102
    34.3600       132
    34.5800       184
    34.8000       174
    35.0200       180
    35.2400       140
    35.4600       164
    35.6800       152
    35.9000       132
    36.1200        66
    36.3400        64
    36.5600        38
    36.7800        42
    37.0000        32
    37.2200        24
    37.4400        38
    37.6600        36
    37.8800        36
    38.1000        50
    38.3200        36
    38.5400        52
    38.7600        60
    38.9800        58
    39.2000        46
    39.4200        58
    39.6400        56
    39.8600        44
    40.0800        48
    40.3000        62
    40.5200        44
    40.7400        48
    40.9600        42
    41.1800        40
    41.4000        52
    41.6200        58
    41.8400        66
    42.0600        68
    42.2800        72
    42.5000       106
    42.7200       120
    42.9400       102
    43.1600        74
    43.3800        36
    43.6000        48
    43.8200        44
    44.0400        38
    44.2600        32
    44.4800        40
    44.7000        30
    44.9200        32
    45.1400        38
    45.3600        34
    45.5800        30
    45.8000        44
    46.0200        22
    46.2400        40
    46.4600        32
    46.6800        30
    46.9000        34
    47.1200        30
    47.3400        28
    47.5600        36
    47.7800        42
    48.0000        38
    48.2200        36
    48.4400        34
    48.6600        42
    48.8800        48
    49.1000        34
    49.3200        30
    49.5400        36
    49.7600        28
    49.9800        28
    50.2000        28
    50.4200        26
    50.6400        66
    50.8600        54
    51.0800        32
    51.3000        36
    51.5200        50
    51.7400        60
    51.9600        50
    52.1800        40
    52.4000        26
    52.6200        32
    52.8400        40
    53.0600        34
    53.2800        34
    53.5000        46
    53.7200        40
    53.9400        32
    54.1600        38
    54.3800        40
    54.6000        58
    54.8200        52
    55.0400        64
    55.2600        46
    55.4800        40
    55.7000        34
    55.9200        30
    56.1400        44
    56.3600        38
    56.5800        32
    56.8000        32
    57.0200        52
    57.2400        32
    57.4600        34
    57.6800        26
    57.9000        34
    58.1200        36
    58.3400        36
    58.5600        38
    58.7800        34
    59.0000        54
    59.2200        32
    59.4400        36
    59.6600        40
    59.8800        48
    60.1000        32
    60.3200        54
    60.5400        62
    60.7600        54
    60.9800        48
    61.2000        34
    61.4200        58
    61.6400        58
    61.8600        44
    62.0800        40
    62.3000        58
    62.5200        56
    62.7400        40
    62.9600        32
    63.1800        26
    63.4000        32
    63.6200        26
    63.8400        34
    64.0600        36
    64.2800        26
    64.5000        24
    64.7200        32
    64.9400        36
    65.0000        38