File: sl1/usgs/library06/DESCRIPT/new_xrd_results_to_be_added/Rhonda_Driscoll_xrd_runs/GDS817---Allophane.txt
/////////////////////////////////////////////////////////////////////////////////
/// Profile Data Ascii Dump (XRD)                                             ///
/////////////////////////////////////////////////////////////////////////////////

  Group     : Swayze
  Data      : GDS817
  File Name : GDS817.RAW

# Profile Datafile
          comment             = Allophane
          date & time         = 08-03-12 08:02:14

# Measurement Condition
    X-ray tube
          target              = Cu
          voltage             = 40.0 (kV)
          current             = 30.0 (mA)
    Slits
          divergence slit     = 2.00000 (deg)
          scatter slit        = 2.00000 (deg)
          receiving slit      = 0.15000 (mm)
    Scanning
          drive axis          = Theta-2Theta
          scan range          =    4.000 -   65.000
          scan mode           = Continuous Scan
          scan speed          =   2.0000 (deg/min)
          sampling pitch      =   0.0200 (deg)
          preset time         =   0.60 (sec)

# Data      [ Total No. = 3051 ]
  <2Theta>   <   I   >
     4.0000       178
     4.2200       200
     4.4400       178
     4.6600       158
     4.8800       164
     5.1000       186
     5.3200       166
     5.5400       160
     5.7600       146
     5.9800       154
     6.2000       170
     6.4200       154
     6.6400       132
     6.8600       132
     7.0800       136
     7.3000       130
     7.5200       114
     7.7400       112
     7.9600       104
     8.1800       130
     8.4000       106
     8.6200       130
     8.8400       130
     9.0600       118
     9.2800       124
     9.5000       128
     9.7200        98
     9.9400       118
    10.1600       126
    10.3800       118
    10.6000        88
    10.8200        98
    11.0400        90
    11.2600        96
    11.4800       104
    11.7000        98
    11.9200        88
    12.1400        68
    12.3600        90
    12.5800        72
    12.8000        88
    13.0200        88
    13.2400        62
    13.4600        76
    13.6800        92
    13.9000        66
    14.1200        54
    14.3400        74
    14.5600        66
    14.7800        84
    15.0000        48
    15.2200        76
    15.4400        52
    15.6600        52
    15.8800        58
    16.1000        56
    16.3200        68
    16.5400        62
    16.7600        60
    16.9800        62
    17.2000        74
    17.4200        48
    17.6400        58
    17.8600        66
    18.0800        56
    18.3000        68
    18.5200        72
    18.7400        66
    18.9600        54
    19.1800        72
    19.4000        52
    19.6200        52
    19.8400        54
    20.0600        60
    20.2800        62
    20.5000        60
    20.7200        84
    20.9400        92
    21.1600        70
    21.3800        58
    21.6000        60
    21.8200        48
    22.0400        56
    22.2600        52
    22.4800        54
    22.7000        50
    22.9200        50
    23.1400        52
    23.3600        74
    23.5800        52
    23.8000        46
    24.0200        46
    24.2400        54
    24.4600        38
    24.6800        60
    24.9000        70
    25.1200        58
    25.3400        56
    25.5600        58
    25.7800        78
    26.0000       276
    26.2200       230
    26.4400       120
    26.6600        54
    26.8800       100
    27.1000       284
    27.3200        56
    27.5400        56
    27.7600        92
    27.9800        52
    28.2000        44
    28.4200        56
    28.6400        50
    28.8600        50
    29.0800        58
    29.3000        46
    29.5200        50
    29.7400        38
    29.9600        46
    30.1800        50
    30.4000        64
    30.6200        64
    30.8400        48
    31.0600        58
    31.2800        40
    31.5000        48
    31.7200        44
    31.9400        32
    32.1600        44
    32.3800        50
    32.6000        88
    32.8200       112
    33.0400       272
    33.2600        60
    33.4800        46
    33.7000        56
    33.9200        56
    34.1400        50
    34.3600        62
    34.5800        66
    34.8000        48
    35.0200        50
    35.2400        56
    35.4600        54
    35.6800        66
    35.9000       152
    36.1200       340
    36.3400        98
    36.5600        74
    36.7800        80
    37.0000        96
    37.2200       128
    37.4400        64
    37.6600       112
    37.8800       120
    38.1000        84
    38.3200       368
    38.5400       128
    38.7600        56
    38.9800        32
    39.2000        40
    39.4200        48
    39.6400        36
    39.8600        34
    40.0800        38
    40.3000        38
    40.5200        40
    40.7400        56
    40.9600        66
    41.1800       100
    41.4000        42
    41.6200        40
    41.8400        40
    42.0600        46
    42.2800        44
    42.5000        52
    42.7200       240
    42.9400       224
    43.1600        52
    43.3800        46
    43.6000        34
    43.8200        34
    44.0400        36
    44.2600        28
    44.4800        50
    44.7000        46
    44.9200        42
    45.1400        56
    45.3600        82
    45.5800       130
    45.8000       498
    46.0200        76
    46.2400        38
    46.4600        26
    46.6800        50
    46.9000        42
    47.1200        38
    47.3400        54
    47.5600        52
    47.7800        52
    48.0000        70
    48.2200       242
    48.4400       128
    48.6600        56
    48.8800        46
    49.1000        44
    49.3200        50
    49.5400        38
    49.7600        46
    49.9800        66
    50.2000       104
    50.4200        36
    50.6400        38
    50.8600        36
    51.0800        36
    51.3000        36
    51.5200        36
    51.7400        60
    51.9600        42
    52.1800        62
    52.4000       112
    52.6200        62
    52.8400       112
    53.0600        54
    53.2800        50
    53.5000        36
    53.7200        62
    53.9400        50
    54.1600        36
    54.3800        36
    54.6000        38
    54.8200        30
    55.0400        32
    55.2600        42
    55.4800        42
    55.7000        36
    55.9200        40
    56.1400        64
    56.3600        56
    56.5800        50
    56.8000        56
    57.0200        40
    57.2400        28
    57.4600        42
    57.6800        54
    57.9000        32
    58.1200        34
    58.3400        34
    58.5600        30
    58.7800        42
    59.0000        62
    59.2200        68
    59.4400        68
    59.6600        36
    59.8800        38
    60.1000        56
    60.3200        46
    60.5400        46
    60.7600        42
    60.9800        34
    61.2000        48
    61.4200        40
    61.6400        82
    61.8600        58
    62.0800        34
    62.3000        36
    62.5200        36
    62.7400        48
    62.9600        58
    63.1800        76
    63.4000        58
    63.6200        44
    63.8400        34
    64.0600        42
    64.2800        30
    64.5000        28
    64.7200        32
    64.9400        36
    65.0000        28