File: sl1/usgs/library06/DESCRIPT/new_xrd_results_to_be_added/Rhonda_Driscoll_xrd_runs/GDS822.txt
/////////////////////////////////////////////////////////////////////////////////
/// Profile Data Ascii Dump (XRD)                                             ///
/////////////////////////////////////////////////////////////////////////////////

  Group     : Swayze
  Data      : GDS822
  File Name : GDS822.RAW

# Profile Datafile
          comment             =
          date & time         = 08-03-11 06:36:46

# Measurement Condition
    X-ray tube
          target              = Cu
          voltage             = 40.0 (kV)
          current             = 30.0 (mA)
    Slits
          divergence slit     = 2.00000 (deg)
          scatter slit        = 2.00000 (deg)
          receiving slit      = 0.15000 (mm)
    Scanning
          drive axis          = Theta-2Theta
          scan range          =    4.000 -   65.000
          scan mode           = Continuous Scan
          scan speed          =   2.0000 (deg/min)
          sampling pitch      =   0.0200 (deg)
          preset time         =   0.60 (sec)

# Data      [ Total No. = 3051 ]
  <2Theta>   <   I   >
     4.0000       170
     4.2200       174
     4.4400       192
     4.6600       168
     4.8800       166
     5.1000       152
     5.3200       168
     5.5400       164
     5.7600       144
     5.9800       124
     6.2000       176
     6.4200       144
     6.6400       130
     6.8600       136
     7.0800       132
     7.3000       138
     7.5200       120
     7.7400       132
     7.9600       114
     8.1800       132
     8.4000       122
     8.6200       126
     8.8400       130
     9.0600       110
     9.2800        98
     9.5000       106
     9.7200       120
     9.9400        96
    10.1600       104
    10.3800       100
    10.6000        92
    10.8200        96
    11.0400        98
    11.2600        80
    11.4800        78
    11.7000        94
    11.9200        92
    12.1400        74
    12.3600        88
    12.5800        76
    12.8000        82
    13.0200        78
    13.2400        80
    13.4600        76
    13.6800        68
    13.9000        60
    14.1200        64
    14.3400        52
    14.5600        68
    14.7800        58
    15.0000        64
    15.2200        74
    15.4400       128
    15.6600        74
    15.8800        54
    16.1000        64
    16.3200        40
    16.5400        52
    16.7600        64
    16.9800        72
    17.2000        74
    17.4200        76
    17.6400       204
    17.8600       762
    18.0800       140
    18.3000        68
    18.5200        40
    18.7400        50
    18.9600        60
    19.1800        46
    19.4000        56
    19.6200        52
    19.8400        46
    20.0600        44
    20.2800        52
    20.5000        44
    20.7200        50
    20.9400        32
    21.1600        50
    21.3800        52
    21.6000        44
    21.8200        58
    22.0400        34
    22.2600        42
    22.4800        38
    22.7000        70
    22.9200        60
    23.1400        48
    23.3600        44
    23.5800        50
    23.8000        36
    24.0200        42
    24.2400        62
    24.4600        58
    24.6800        72
    24.9000       128
    25.1200       678
    25.3400      4450
    25.5600       206
    25.7800        72
    26.0000        46
    26.2200        38
    26.4400        42
    26.6600        48
    26.8800        44
    27.1000        46
    27.3200        34
    27.5400        40
    27.7600        38
    27.9800        38
    28.2000        34
    28.4200        38
    28.6400        36
    28.8600        50
    29.0800        48
    29.3000        46
    29.5200       128
    29.7400      1022
    29.9600       878
    30.1800       236
    30.4000        70
    30.6200        48
    30.8400        36
    31.0600        60
    31.2800       234
    31.5000        48
    31.7200        78
    31.9400        86
    32.1600        28
    32.3800        22
    32.6000        18
    32.8200        34
    33.0400        32
    33.2600        36
    33.4800        30
    33.7000        28
    33.9200        22
    34.1400        30
    34.3600        16
    34.5800        22
    34.8000        36
    35.0200        34
    35.2400        30
    35.4600        44
    35.6800        30
    35.9000        40
    36.1200       286
    36.3400        82
    36.5600        32
    36.7800        30
    37.0000        38
    37.2200        14
    37.4400        24
    37.6600        26
    37.8800        26
    38.1000        30
    38.3200        50
    38.5400       158
    38.7600        44
    38.9800        30
    39.2000        26
    39.4200        68
    39.6400       234
    39.8600       120
    40.0800        94
    40.3000       104
    40.5200       124
    40.7400       210
    40.9600        62
    41.1800       176
    41.4000        42
    41.6200        44
    41.8400        18
    42.0600        32
    42.2800        22
    42.5000        26
    42.7200        26
    42.9400        40
    43.1600       148
    43.3800        94
    43.6000        34
    43.8200        22
    44.0400        26
    44.2600        28
    44.4800        26
    44.7000        30
    44.9200        20
    45.1400        28
    45.3600        52
    45.5800        32
    45.8000        18
    46.0200        28
    46.2400        20
    46.4600        26
    46.6800        56
    46.9000        40
    47.1200        32
    47.3400        56
    47.5600       300
    47.7800       302
    48.0000       116
    48.2200        56
    48.4400        94
    48.6600       136
    48.8800        74
    49.1000        98
    49.3200        38
    49.5400        32
    49.7600        34
    49.9800        32
    50.2000        24
    50.4200        26
    50.6400        40
    50.8600        20
    51.0800        20
    51.3000        24
    51.5200        26
    51.7400        36
    51.9600       198
    52.1800       650
    52.4000       138
    52.6200        32
    52.8400        34
    53.0600        36
    53.2800        24
    53.5000        34
    53.7200        18
    53.9400        26
    54.1600        28
    54.3800        24
    54.6000        26
    54.8200        42
    55.0400        16
    55.2600        30
    55.4800       112
    55.7000       172
    55.9200        60
    56.1400        40
    56.3600        24
    56.5800        14
    56.8000        22
    57.0200        28
    57.2400        24
    57.4600        40
    57.6800        82
    57.9000        38
    58.1200        24
    58.3400        22
    58.5600        38
    58.7800       130
    59.0000       160
    59.2200        42
    59.4400        42
    59.6600        32
    59.8800        38
    60.1000        26
    60.3200        34
    60.5400        58
    60.7600        36
    60.9800        46
    61.2000        54
    61.4200        58
    61.6400        32
    61.8600        60
    62.0800       192
    62.3000       186
    62.5200        80
    62.7400        82
    62.9600        64
    63.1800        66
    63.4000        58
    63.6200        42
    63.8400        40
    64.0600        28
    64.2800        38
    64.5000        22
    64.7200        30
    64.9400        20
    65.0000        24