File: sl1/usgs/library06/DESCRIPT/new_xrd_results_to_be_added/Rhonda_Driscoll_xrd_runs/GDS821---Stilbite.txt
/////////////////////////////////////////////////////////////////////////////////
/// Profile Data Ascii Dump (XRD)                                             ///
/////////////////////////////////////////////////////////////////////////////////

  Group     : Swayze
  Data      : GDS821
  File Name : GDS821.RAW

# Profile Datafile
          comment             = Stilbite
          date & time         = 08-04-01 06:47:56

# Measurement Condition
    X-ray tube
          target              = Cu
          voltage             = 40.0 (kV)
          current             = 30.0 (mA)
    Slits
          divergence slit     = 2.00000 (deg)
          scatter slit        = 2.00000 (deg)
          receiving slit      = 0.15000 (mm)
    Scanning
          drive axis          = Theta-2Theta
          scan range          =    4.000 -   65.000
          scan mode           = Continuous Scan
          scan speed          =   2.0000 (deg/min)
          sampling pitch      =   0.0200 (deg)
          preset time         =   0.60 (sec)

# Data      [ Total No. = 3051 ]
  <2Theta>   <   I   >
     4.0000       184
     4.2200       158
     4.4400       156
     4.6600       162
     4.8800       166
     5.1000       150
     5.3200       178
     5.5400       154
     5.7600       154
     5.9800       142
     6.2000       156
     6.4200       144
     6.6400       116
     6.8600       122
     7.0800       102
     7.3000       112
     7.5200       114
     7.7400       134
     7.9600        90
     8.1800       126
     8.4000       116
     8.6200       122
     8.8400       140
     9.0600       126
     9.2800       236
     9.5000       452
     9.7200      1442
     9.9400       274
    10.1600        88
    10.3800        88
    10.6000        80
    10.8200       104
    11.0400        88
    11.2600        88
    11.4800        94
    11.7000        70
    11.9200        70
    12.1400        90
    12.3600        74
    12.5800        76
    12.8000        76
    13.0200        80
    13.2400        68
    13.4600        76
    13.6800        58
    13.9000        98
    14.1200        64
    14.3400        62
    14.5600        64
    14.7800        56
    15.0000        52
    15.2200        52
    15.4400        56
    15.6600        46
    15.8800        62
    16.1000        72
    16.3200        82
    16.5400        96
    16.7600       136
    16.9800        76
    17.2000        56
    17.4200        50
    17.6400        56
    17.8600        46
    18.0800        60
    18.3000        54
    18.5200        66
    18.7400        72
    18.9600       264
    19.1800       244
    19.4000       114
    19.6200        92
    19.8400        84
    20.0600        58
    20.2800        54
    20.5000        84
    20.7200       180
    20.9400        90
    21.1600        80
    21.3800        68
    21.6000       196
    21.8200      1164
    22.0400       770
    22.2600       214
    22.4800        66
    22.7000        36
    22.9200        54
    23.1400        54
    23.3600        62
    23.5800        76
    23.8000       180
    24.0200       120
    24.2400        54
    24.4600        42
    24.6800        50
    24.9000        48
    25.1200        48
    25.3400        56
    25.5600       162
    25.7800        78
    26.0000        96
    26.2200       234
    26.4400       114
    26.6600        58
    26.8800        54
    27.1000        44
    27.3200        68
    27.5400        54
    27.7600       100
    27.9800       296
    28.2000        92
    28.4200        72
    28.6400       122
    28.8600       102
    29.0800        90
    29.3000       404
    29.5200       952
    29.7400       382
    29.9600       152
    30.1800        78
    30.4000        50
    30.6200        58
    30.8400        76
    31.0600       132
    31.2800        64
    31.5000        70
    31.7200        90
    31.9400        94
    32.1600       274
    32.3800       268
    32.6000        62
    32.8200        66
    33.0400        94
    33.2600        68
    33.4800        52
    33.7000        54
    33.9200        36
    34.1400        52
    34.3600       106
    34.5800        88
    34.8000       104
    35.0200       190
    35.2400        98
    35.4600        80
    35.6800        86
    35.9000        92
    36.1200       126
    36.3400        74
    36.5600        96
    36.7800        52
    37.0000        52
    37.2200        54
    37.4400        40
    37.6600        58
    37.8800        54
    38.1000        74
    38.3200       106
    38.5400        50
    38.7600        62
    38.9800       102
    39.2000        46
    39.4200        46
    39.6400        68
    39.8600        42
    40.0800        54
    40.3000        56
    40.5200       100
    40.7400       100
    40.9600        68
    41.1800        56
    41.4000        44
    41.6200        58
    41.8400        60
    42.0600        38
    42.2800        36
    42.5000       110
    42.7200        84
    42.9400        90
    43.1600        94
    43.3800        58
    43.6000        72
    43.8200       136
    44.0400        76
    44.2600       104
    44.4800       102
    44.7000       138
    44.9200        72
    45.1400        66
    45.3600        54
    45.5800        42
    45.8000        30
    46.0200        36
    46.2400        40
    46.4600        46
    46.6800        40
    46.9000        40
    47.1200        30
    47.3400        34
    47.5600        36
    47.7800        86
    48.0000       104
    48.2200        72
    48.4400        38
    48.6600        56
    48.8800        60
    49.1000        52
    49.3200        46
    49.5400        58
    49.7600        84
    49.9800       230
    50.2000       172
    50.4200       110
    50.6400        92
    50.8600        70
    51.0800        66
    51.3000       118
    51.5200        58
    51.7400        60
    51.9600        42
    52.1800        60
    52.4000        46
    52.6200        48
    52.8400        78
    53.0600       112
    53.2800        38
    53.5000        50
    53.7200        42
    53.9400        54
    54.1600        48
    54.3800        58
    54.6000        44
    54.8200        66
    55.0400        60
    55.2600        56
    55.4800        50
    55.7000        48
    55.9200        60
    56.1400        70
    56.3600        58
    56.5800        42
    56.8000        50
    57.0200        58
    57.2400        50
    57.4600        48
    57.6800        78
    57.9000       120
    58.1200       106
    58.3400        78
    58.5600        46
    58.7800        54
    59.0000        62
    59.2200        76
    59.4400       122
    59.6600       104
    59.8800        50
    60.1000        50
    60.3200        24
    60.5400        44
    60.7600        28
    60.9800        46
    61.2000        56
    61.4200        54
    61.6400        44
    61.8600        48
    62.0800        56
    62.3000        60
    62.5200        44
    62.7400        42
    62.9600        42
    63.1800        72
    63.4000        48
    63.6200        60
    63.8400        36
    64.0600        46
    64.2800        42
    64.5000        56
    64.7200        72
    64.9400        60
    65.0000        52