File: sl1/usgs/library06/DESCRIPT/new_xrd_results_to_be_added/Rhonda_Driscoll_xrd_runs/GDS80---Syn-Lepidocrocite.txt
/////////////////////////////////////////////////////////////////////////////////
/// Profile Data Ascii Dump (XRD)                                             ///
/////////////////////////////////////////////////////////////////////////////////

  Group     : Swayze
  Data      : GDS80
  File Name : GDS80.RAW

# Profile Datafile
          comment             = Syn Lepidocrosite
          date & time         = 08-04-14 08:55:48

# Measurement Condition
    X-ray tube
          target              = Cu
          voltage             = 40.0 (kV)
          current             = 30.0 (mA)
    Slits
          divergence slit     = 2.00000 (deg)
          scatter slit        = 2.00000 (deg)
          receiving slit      = 0.15000 (mm)
    Scanning
          drive axis          = Theta-2Theta
          scan range          =    4.000 -   65.000
          scan mode           = Continuous Scan
          scan speed          =   2.0000 (deg/min)
          sampling pitch      =   0.0200 (deg)
          preset time         =   0.60 (sec)

# Data      [ Total No. = 3051 ]
  <2Theta>   <   I   >
     4.0000       180
     4.2200       190
     4.4400       220
     4.6600       176
     4.8800       160
     5.1000       148
     5.3200       152
     5.5400       142
     5.7600       146
     5.9800       168
     6.2000       150
     6.4200       132
     6.6400       128
     6.8600       138
     7.0800       130
     7.3000       116
     7.5200       116
     7.7400       108
     7.9600       110
     8.1800       116
     8.4000       118
     8.6200       116
     8.8400       116
     9.0600       110
     9.2800       114
     9.5000       116
     9.7200       108
     9.9400       130
    10.1600       106
    10.3800       108
    10.6000       108
    10.8200       108
    11.0400        84
    11.2600        84
    11.4800        88
    11.7000        86
    11.9200        68
    12.1400        70
    12.3600        86
    12.5800        80
    12.8000        72
    13.0200        76
    13.2400        78
    13.4600        98
    13.6800        90
    13.9000       114
    14.1200       108
    14.3400        78
    14.5600        68
    14.7800        80
    15.0000        76
    15.2200        64
    15.4400        70
    15.6600        54
    15.8800        56
    16.1000        68
    16.3200        46
    16.5400        62
    16.7600        62
    16.9800        62
    17.2000        52
    17.4200        72
    17.6400        80
    17.8600        70
    18.0800        54
    18.3000        54
    18.5200        52
    18.7400        60
    18.9600        50
    19.1800        64
    19.4000        52
    19.6200        52
    19.8400        50
    20.0600        50
    20.2800        72
    20.5000        92
    20.7200       126
    20.9400       176
    21.1600       140
    21.3800       130
    21.6000        90
    21.8200        76
    22.0400        58
    22.2600        48
    22.4800        52
    22.7000        46
    22.9200        34
    23.1400        54
    23.3600        42
    23.5800        56
    23.8000        54
    24.0200        42
    24.2400        62
    24.4600        46
    24.6800        40
    24.9000        38
    25.1200        44
    25.3400        42
    25.5600        46
    25.7800        52
    26.0000        70
    26.2200        70
    26.4400        56
    26.6600        64
    26.8800        92
    27.1000        86
    27.3200        72
    27.5400        40
    27.7600        40
    27.9800        46
    28.2000        52
    28.4200        52
    28.6400        28
    28.8600        44
    29.0800        36
    29.3000        32
    29.5200        42
    29.7400        46
    29.9600        48
    30.1800        40
    30.4000        30
    30.6200        36
    30.8400        40
    31.0600        36
    31.2800        38
    31.5000        48
    31.7200        36
    31.9400        46
    32.1600        40
    32.3800        52
    32.6000        58
    32.8200        96
    33.0400       112
    33.2600       112
    33.4800        64
    33.7000        48
    33.9200        68
    34.1400        46
    34.3600        68
    34.5800       108
    34.8000        64
    35.0200        58
    35.2400        70
    35.4600        62
    35.6800        84
    35.9000       112
    36.1200       180
    36.3400       214
    36.5600       204
    36.7800       112
    37.0000        76
    37.2200        66
    37.4400        56
    37.6600        52
    37.8800        58
    38.1000        62
    38.3200        42
    38.5400        60
    38.7600        54
    38.9800        40
    39.2000        38
    39.4200        52
    39.6400        66
    39.8600        76
    40.0800        46
    40.3000        56
    40.5200        42
    40.7400        48
    40.9600        76
    41.1800        68
    41.4000        44
    41.6200        42
    41.8400        50
    42.0600        32
    42.2800        40
    42.5000        42
    42.7200        48
    42.9400        36
    43.1600        54
    43.3800        26
    43.6000        44
    43.8200        32
    44.0400        40
    44.2600        34
    44.4800        38
    44.7000        30
    44.9200        50
    45.1400        46
    45.3600        38
    45.5800        40
    45.8000        30
    46.0200        42
    46.2400        46
    46.4600        66
    46.6800        88
    46.9000        54
    47.1200        62
    47.3400        56
    47.5600        48
    47.7800        38
    48.0000        34
    48.2200        40
    48.4400        46
    48.6600        32
    48.8800        40
    49.1000        42
    49.3200        48
    49.5400        34
    49.7600        42
    49.9800        46
    50.2000        52
    50.4200        56
    50.6400        28
    50.8600        44
    51.0800        40
    51.3000        36
    51.5200        34
    51.7400        44
    51.9600        38
    52.1800        48
    52.4000        56
    52.6200        82
    52.8400       100
    53.0600       104
    53.2800        82
    53.5000        58
    53.7200        62
    53.9400        64
    54.1600        54
    54.3800        46
    54.6000        54
    54.8200        38
    55.0400        38
    55.2600        48
    55.4800        42
    55.7000        50
    55.9200        36
    56.1400        42
    56.3600        34
    56.5800        38
    56.8000        46
    57.0200        52
    57.2400        36
    57.4600        42
    57.6800        38
    57.9000        36
    58.1200        32
    58.3400        32
    58.5600        48
    58.7800        72
    59.0000        84
    59.2200        60
    59.4400        50
    59.6600        54
    59.8800        54
    60.1000        60
    60.3200        64
    60.5400        54
    60.7600        56
    60.9800        74
    61.2000        78
    61.4200        52
    61.6400        50
    61.8600        42
    62.0800        40
    62.3000        46
    62.5200        36
    62.7400        38
    62.9600        38
    63.1800        38
    63.4000        42
    63.6200        56
    63.8400        58
    64.0600        68
    64.2800        38
    64.5000        34
    64.7200        40
    64.9400        48
    65.0000        42