File: sl1/usgs/library06/DESCRIPT/new_xrd_results_to_be_added/Rhonda_Driscoll_xrd_runs/GDS820---Halloysite.txt
/////////////////////////////////////////////////////////////////////////////////
/// Profile Data Ascii Dump (XRD)                                             ///
/////////////////////////////////////////////////////////////////////////////////

  Group     : Swayze
  Data      : GDS820
  File Name : GDS820.RAW

# Profile Datafile
          comment             = Halloysite
          date & time         = 08-04-01 07:49:53

# Measurement Condition
    X-ray tube
          target              = Cu
          voltage             = 40.0 (kV)
          current             = 30.0 (mA)
    Slits
          divergence slit     = 2.00000 (deg)
          scatter slit        = 2.00000 (deg)
          receiving slit      = 0.15000 (mm)
    Scanning
          drive axis          = Theta-2Theta
          scan range          =    4.000 -   65.000
          scan mode           = Continuous Scan
          scan speed          =   2.0000 (deg/min)
          sampling pitch      =   0.0200 (deg)
          preset time         =   0.60 (sec)

# Data      [ Total No. = 3051 ]
  <2Theta>   <   I   >
     4.0000       174
     4.2200       174
     4.4400       158
     4.6600       142
     4.8800       158
     5.1000       190
     5.3200       146
     5.5400       156
     5.7600       136
     5.9800       148
     6.2000       160
     6.4200       132
     6.6400       122
     6.8600       118
     7.0800       150
     7.3000       120
     7.5200       128
     7.7400       120
     7.9600       106
     8.1800       108
     8.4000       102
     8.6200       108
     8.8400       118
     9.0600       122
     9.2800       110
     9.5000       122
     9.7200       126
     9.9400       102
    10.1600       110
    10.3800       112
    10.6000       122
    10.8200       100
    11.0400       114
    11.2600       110
    11.4800       110
    11.7000       148
    11.9200       192
    12.1400       212
    12.3600       212
    12.5800       140
    12.8000       104
    13.0200        94
    13.2400        94
    13.4600        72
    13.6800        64
    13.9000        56
    14.1200        66
    14.3400        60
    14.5600        52
    14.7800        52
    15.0000        50
    15.2200        60
    15.4400        58
    15.6600        48
    15.8800        50
    16.1000        52
    16.3200        68
    16.5400        54
    16.7600        60
    16.9800        46
    17.2000        44
    17.4200        64
    17.6400        50
    17.8600        56
    18.0800        56
    18.3000        52
    18.5200        48
    18.7400        56
    18.9600        64
    19.1800        74
    19.4000        64
    19.6200       128
    19.8400       338
    20.0600       304
    20.2800       278
    20.5000       276
    20.7200       230
    20.9400       240
    21.1600       216
    21.3800       220
    21.6000       194
    21.8200       162
    22.0400       170
    22.2600       150
    22.4800       134
    22.7000       144
    22.9200       138
    23.1400       152
    23.3600       128
    23.5800       150
    23.8000       136
    24.0200       130
    24.2400       146
    24.4600       248
    24.6800       222
    24.9000       194
    25.1200       162
    25.3400       118
    25.5600       140
    25.7800       100
    26.0000        90
    26.2200        92
    26.4400       164
    26.6600        86
    26.8800        78
    27.1000        72
    27.3200        76
    27.5400        86
    27.7600       152
    27.9800       196
    28.2000        78
    28.4200        84
    28.6400        84
    28.8600        62
    29.0800        50
    29.3000        64
    29.5200        58
    29.7400        60
    29.9600        68
    30.1800        54
    30.4000        78
    30.6200        56
    30.8400        72
    31.0600        40
    31.2800        48
    31.5000        64
    31.7200        58
    31.9400        56
    32.1600        46
    32.3800        54
    32.6000        50
    32.8200        50
    33.0400        38
    33.2600        54
    33.4800        46
    33.7000        50
    33.9200        46
    34.1400        38
    34.3600        50
    34.5800        84
    34.8000       160
    35.0200       258
    35.2400       192
    35.4600       196
    35.6800       216
    35.9000       218
    36.1200       154
    36.3400        92
    36.5600        84
    36.7800        98
    37.0000        66
    37.2200        96
    37.4400        66
    37.6600       112
    37.8800       114
    38.1000       176
    38.3200       236
    38.5400       212
    38.7600       174
    38.9800       154
    39.2000       154
    39.4200       116
    39.6400        90
    39.8600        72
    40.0800        78
    40.3000        72
    40.5200        68
    40.7400        94
    40.9600        62
    41.1800        74
    41.4000        44
    41.6200        46
    41.8400        54
    42.0600        60
    42.2800        62
    42.5000        46
    42.7200        46
    42.9400        46
    43.1600        62
    43.3800        40
    43.6000        58
    43.8200        44
    44.0400        62
    44.2600        52
    44.4800        48
    44.7000        68
    44.9200        58
    45.1400        78
    45.3600        66
    45.5800        76
    45.8000        76
    46.0200        64
    46.2400        66
    46.4600        56
    46.6800        60
    46.9000        68
    47.1200        64
    47.3400        48
    47.5600        72
    47.7800        66
    48.0000        54
    48.2200        52
    48.4400        42
    48.6600        54
    48.8800        64
    49.1000        50
    49.3200        70
    49.5400        58
    49.7600        70
    49.9800        54
    50.2000        56
    50.4200        48
    50.6400        32
    50.8600        46
    51.0800        52
    51.3000        48
    51.5200        56
    51.7400        34
    51.9600        48
    52.1800        32
    52.4000        48
    52.6200        40
    52.8400        46
    53.0600        42
    53.2800        42
    53.5000        52
    53.7200        46
    53.9400        56
    54.1600        68
    54.3800        84
    54.6000        94
    54.8200        88
    55.0400        96
    55.2600       102
    55.4800        86
    55.7000        98
    55.9200        66
    56.1400        68
    56.3600        74
    56.5800        84
    56.8000        82
    57.0200        64
    57.2400        50
    57.4600        48
    57.6800        58
    57.9000        52
    58.1200        58
    58.3400        44
    58.5600        42
    58.7800        50
    59.0000        52
    59.2200        46
    59.4400        54
    59.6600        50
    59.8800        62
    60.1000        74
    60.3200        50
    60.5400        44
    60.7600        34
    60.9800        50
    61.2000        72
    61.4200        38
    61.6400        58
    61.8600        78
    62.0800       118
    62.3000       180
    62.5200       138
    62.7400        88
    62.9600        66
    63.1800        70
    63.4000        68
    63.6200        52
    63.8400        62
    64.0600        52
    64.2800        52
    64.5000        44
    64.7200        42
    64.9400        32
    65.0000        42