File: sl1/usgs/library06/DESCRIPT/new_xrd_results_to_be_added/Rhonda_Driscoll_xrd_runs/LC-5-250C-30hrs.txt
/////////////////////////////////////////////////////////////////////////////////
/// Profile Data Ascii Dump (XRD)                                             ///
/////////////////////////////////////////////////////////////////////////////////

  Group     : Swayze
  Data      : LC-5
  File Name : LC-5.RAW

# Profile Datafile
          comment             = Alunite-250C-30hrs
          date & time         = 08-04-01 07:18:54

# Measurement Condition
    X-ray tube
          target              = Cu
          voltage             = 40.0 (kV)
          current             = 30.0 (mA)
    Slits
          divergence slit     = 2.00000 (deg)
          scatter slit        = 2.00000 (deg)
          receiving slit      = 0.15000 (mm)
    Scanning
          drive axis          = Theta-2Theta
          scan range          =    4.000 -   65.000
          scan mode           = Continuous Scan
          scan speed          =   2.0000 (deg/min)
          sampling pitch      =   0.0200 (deg)
          preset time         =   0.60 (sec)

# Data      [ Total No. = 3051 ]
  <2Theta>   <   I   >
     4.0000       208
     4.2200       198
     4.4400       200
     4.6600       152
     4.8800       188
     5.1000       150
     5.3200       168
     5.5400       188
     5.7600       172
     5.9800       174
     6.2000       150
     6.4200       172
     6.6400       160
     6.8600       126
     7.0800        98
     7.3000       136
     7.5200       134
     7.7400       116
     7.9600       116
     8.1800       122
     8.4000       126
     8.6200       120
     8.8400       114
     9.0600       136
     9.2800       126
     9.5000       118
     9.7200       112
     9.9400       112
    10.1600       112
    10.3800       102
    10.6000       112
    10.8200        94
    11.0400        98
    11.2600        98
    11.4800        80
    11.7000        94
    11.9200        78
    12.1400        90
    12.3600        82
    12.5800        60
    12.8000        86
    13.0200        76
    13.2400        74
    13.4600        64
    13.6800        66
    13.9000        68
    14.1200        70
    14.3400        66
    14.5600        72
    14.7800        92
    15.0000        72
    15.2200        98
    15.4400       196
    15.6600        74
    15.8800        58
    16.1000        64
    16.3200        62
    16.5400        62
    16.7600        64
    16.9800        76
    17.2000        70
    17.4200        58
    17.6400       158
    17.8600       518
    18.0800        82
    18.3000        62
    18.5200        76
    18.7400        66
    18.9600        58
    19.1800        70
    19.4000        48
    19.6200        52
    19.8400        72
    20.0600        82
    20.2800        70
    20.5000        72
    20.7200        68
    20.9400        84
    21.1600        54
    21.3800        64
    21.6000        68
    21.8200        86
    22.0400        54
    22.2600        66
    22.4800        56
    22.7000        90
    22.9200        54
    23.1400        70
    23.3600        60
    23.5800        74
    23.8000        64
    24.0200        76
    24.2400        66
    24.4600        64
    24.6800        56
    24.9000        68
    25.1200        88
    25.3400       286
    25.5600       164
    25.7800        78
    26.0000        62
    26.2200        52
    26.4400        68
    26.6600       136
    26.8800        56
    27.1000        58
    27.3200        98
    27.5400        66
    27.7600        58
    27.9800        58
    28.2000        48
    28.4200        60
    28.6400        56
    28.8600        56
    29.0800        64
    29.3000        94
    29.5200       142
    29.7400       630
    29.9600       870
    30.1800        88
    30.4000        50
    30.6200        58
    30.8400        66
    31.0600       136
    31.2800        68
    31.5000       120
    31.7200       292
    31.9400        86
    32.1600        48
    32.3800        56
    32.6000        30
    32.8200        54
    33.0400        38
    33.2600        40
    33.4800        46
    33.7000        40
    33.9200        44
    34.1400        34
    34.3600        40
    34.5800        48
    34.8000        46
    35.0200        26
    35.2400        46
    35.4600        46
    35.6800        40
    35.9000        46
    36.1200        62
    36.3400        56
    36.5600        50
    36.7800        36
    37.0000        54
    37.2200        34
    37.4400        42
    37.6600        46
    37.8800        44
    38.1000        36
    38.3200        58
    38.5400        66
    38.7600        42
    38.9800        54
    39.2000        98
    39.4200       316
    39.6400       178
    39.8600        42
    40.0800        46
    40.3000        38
    40.5200        52
    40.7400       142
    40.9600        44
    41.1800        38
    41.4000        28
    41.6200        28
    41.8400        34
    42.0600        38
    42.2800        48
    42.5000        44
    42.7200        48
    42.9400        34
    43.1600        16
    43.3800        36
    43.6000        34
    43.8200        32
    44.0400        22
    44.2600        46
    44.4800        44
    44.7000        42
    44.9200        32
    45.1400        54
    45.3600       164
    45.5800        90
    45.8000        52
    46.0200        38
    46.2400        28
    46.4600        32
    46.6800        32
    46.9000        30
    47.1200        44
    47.3400        84
    47.5600       198
    47.7800       284
    48.0000        48
    48.2200        28
    48.4400        32
    48.6600        28
    48.8800        28
    49.1000        34
    49.3200        56
    49.5400        42
    49.7600        34
    49.9800        36
    50.2000        36
    50.4200        30
    50.6400        26
    50.8600        34
    51.0800        32
    51.3000        44
    51.5200        30
    51.7400        28
    51.9600        54
    52.1800       210
    52.4000       170
    52.6200        54
    52.8400        30
    53.0600        38
    53.2800        30
    53.5000        30
    53.7200        50
    53.9400        46
    54.1600        36
    54.3800        44
    54.6000        36
    54.8200        52
    55.0400        36
    55.2600        38
    55.4800        40
    55.7000        58
    55.9200        46
    56.1400        36
    56.3600        52
    56.5800        44
    56.8000        30
    57.0200        26
    57.2400        40
    57.4600        28
    57.6800        32
    57.9000        38
    58.1200        28
    58.3400        28
    58.5600        32
    58.7800        44
    59.0000        58
    59.2200        46
    59.4400        26
    59.6600        32
    59.8800        44
    60.1000        30
    60.3200        40
    60.5400        42
    60.7600        34
    60.9800        32
    61.2000        34
    61.4200        72
    61.6400        76
    61.8600       156
    62.0800       150
    62.3000        74
    62.5200        46
    62.7400        28
    62.9600        24
    63.1800        30
    63.4000        18
    63.6200        38
    63.8400        40
    64.0600        32
    64.2800        24
    64.5000        34
    64.7200        26
    64.9400        36
    65.0000        44