File: sl1/usgs/library06/DESCRIPT/new_xrd_results_to_be_added/Rhonda_Driscoll_xrd_runs/Lee-Plumlee-112-HI-ash.txt
/////////////////////////////////////////////////////////////////////////////////
/// Profile Data Ascii Dump (XRD)                                             ///
/////////////////////////////////////////////////////////////////////////////////

  Group     : Swayze
  Data      : LeePlumlee
  File Name : LeePlumlee.RAW

# Profile Datafile
          comment             = 112 HI ash
          date & time         = 08-04-09 08:53:11

# Measurement Condition
    X-ray tube
          target              = Cu
          voltage             = 40.0 (kV)
          current             = 30.0 (mA)
    Slits
          divergence slit     = 2.00000 (deg)
          scatter slit        = 2.00000 (deg)
          receiving slit      = 0.15000 (mm)
    Scanning
          drive axis          = Theta-2Theta
          scan range          =    4.000 -   65.000
          scan mode           = Continuous Scan
          scan speed          =   2.0000 (deg/min)
          sampling pitch      =   0.0200 (deg)
          preset time         =   0.60 (sec)

# Data      [ Total No. = 3051 ]
  <2Theta>   <   I   >
     4.0000       232
     4.2200       194
     4.4400       180
     4.6600       180
     4.8800       160
     5.1000       188
     5.3200       188
     5.5400       184
     5.7600       148
     5.9800       142
     6.2000       164
     6.4200       138
     6.6400       144
     6.8600       134
     7.0800       128
     7.3000       134
     7.5200       126
     7.7400       104
     7.9600       120
     8.1800       124
     8.4000       120
     8.6200       138
     8.8400       116
     9.0600       118
     9.2800       130
     9.5000       130
     9.7200       134
     9.9400       122
    10.1600       118
    10.3800       124
    10.6000       112
    10.8200       108
    11.0400       124
    11.2600       106
    11.4800       132
    11.7000       126
    11.9200       100
    12.1400        86
    12.3600        94
    12.5800        96
    12.8000        92
    13.0200        82
    13.2400        98
    13.4600        64
    13.6800        86
    13.9000        90
    14.1200        82
    14.3400        82
    14.5600       106
    14.7800        86
    15.0000        88
    15.2200        68
    15.4400        96
    15.6600        76
    15.8800        84
    16.1000        70
    16.3200        80
    16.5400       102
    16.7600        84
    16.9800       106
    17.2000       118
    17.4200        78
    17.6400       106
    17.8600        96
    18.0800       100
    18.3000        98
    18.5200       126
    18.7400       110
    18.9600       124
    19.1800        90
    19.4000       132
    19.6200       138
    19.8400       120
    20.0600       128
    20.2800       152
    20.5000       144
    20.7200       170
    20.9400       152
    21.1600       166
    21.3800       188
    21.6000       168
    21.8200       234
    22.0400       158
    22.2600       146
    22.4800       170
    22.7000       186
    22.9200       166
    23.1400       172
    23.3600       164
    23.5800       152
    23.8000       134
    24.0200       160
    24.2400       178
    24.4600       152
    24.6800       166
    24.9000       204
    25.1200       406
    25.3400      1524
    25.5600       286
    25.7800       166
    26.0000       162
    26.2200       126
    26.4400       132
    26.6600       128
    26.8800       114
    27.1000       124
    27.3200       126
    27.5400       126
    27.7600       148
    27.9800       130
    28.2000       112
    28.4200       122
    28.6400        96
    28.8600       138
    29.0800       132
    29.3000        98
    29.5200       110
    29.7400       138
    29.9600       104
    30.1800       108
    30.4000       122
    30.6200       102
    30.8400        84
    31.0600       168
    31.2800       332
    31.5000       126
    31.7200        98
    31.9400        92
    32.1600        82
    32.3800        82
    32.6000        78
    32.8200        74
    33.0400        54
    33.2600        82
    33.4800        86
    33.7000        80
    33.9200        62
    34.1400        70
    34.3600        80
    34.5800        76
    34.8000        88
    35.0200        70
    35.2400        72
    35.4600        84
    35.6800        94
    35.9000       108
    36.1200       112
    36.3400        92
    36.5600        58
    36.7800        56
    37.0000        72
    37.2200        62
    37.4400        84
    37.6600        64
    37.8800        68
    38.1000        78
    38.3200        92
    38.5400       196
    38.7600        90
    38.9800        62
    39.2000        62
    39.4200        58
    39.6400        62
    39.8600        58
    40.0800        52
    40.3000        60
    40.5200        96
    40.7400       176
    40.9600        80
    41.1800       136
    41.4000        76
    41.6200        56
    41.8400        70
    42.0600        86
    42.2800        54
    42.5000        64
    42.7200        50
    42.9400        56
    43.1600        78
    43.3800        70
    43.6000        78
    43.8200        62
    44.0400        56
    44.2600        72
    44.4800        50
    44.7000        42
    44.9200        60
    45.1400        52
    45.3600        88
    45.5800        50
    45.8000        52
    46.0200        48
    46.2400        56
    46.4600        60
    46.6800        80
    46.9000        60
    47.1200        46
    47.3400        68
    47.5600        54
    47.7800        76
    48.0000        78
    48.2200        84
    48.4400       116
    48.6600       154
    48.8800        84
    49.1000        66
    49.3200        46
    49.5400        56
    49.7600        76
    49.9800        48
    50.2000        62
    50.4200        50
    50.6400        44
    50.8600        36
    51.0800        52
    51.3000        62
    51.5200        50
    51.7400        62
    51.9600        78
    52.1800       190
    52.4000        78
    52.6200        52
    52.8400        44
    53.0600        48
    53.2800        48
    53.5000        58
    53.7200        58
    53.9400        62
    54.1600        68
    54.3800        48
    54.6000        58
    54.8200        60
    55.0400        60
    55.2600        62
    55.4800        82
    55.7000        94
    55.9200        98
    56.1400        56
    56.3600        68
    56.5800        64
    56.8000        60
    57.0200        52
    57.2400        50
    57.4600        50
    57.6800        40
    57.9000        50
    58.1200        62
    58.3400        46
    58.5600        56
    58.7800        64
    59.0000        54
    59.2200        56
    59.4400        50
    59.6600        48
    59.8800        54
    60.1000        46
    60.3200        52
    60.5400        76
    60.7600        64
    60.9800        60
    61.2000        54
    61.4200        52
    61.6400        64
    61.8600        52
    62.0800        96
    62.3000        86
    62.5200        62
    62.7400        56
    62.9600        46
    63.1800        42
    63.4000        46
    63.6200        54
    63.8400        42
    64.0600        50
    64.2800        50
    64.5000        36
    64.7200        62
    64.9400        54
    65.0000        46