File: sl1/usgs/library06/DESCRIPT/new_xrd_results_to_be_added/Rhonda_Driscoll_xrd_runs/LV95-30-Epsomite.txt
/////////////////////////////////////////////////////////////////////////////////
/// Profile Data Ascii Dump (XRD)                                             ///
/////////////////////////////////////////////////////////////////////////////////

  Group     : Swayze
  Data      : LV95-30
  File Name : LV95-30.RAW

# Profile Datafile
          comment             = Epsomite
          date & time         = 08-04-09 08:22:13

# Measurement Condition
    X-ray tube
          target              = Cu
          voltage             = 40.0 (kV)
          current             = 30.0 (mA)
    Slits
          divergence slit     = 2.00000 (deg)
          scatter slit        = 2.00000 (deg)
          receiving slit      = 0.15000 (mm)
    Scanning
          drive axis          = Theta-2Theta
          scan range          =    4.000 -   65.000
          scan mode           = Continuous Scan
          scan speed          =   2.0000 (deg/min)
          sampling pitch      =   0.0200 (deg)
          preset time         =   0.60 (sec)

# Data      [ Total No. = 3051 ]
  <2Theta>   <   I   >
     4.0000       184
     4.2200       218
     4.4400       184
     4.6600       160
     4.8800       182
     5.1000       176
     5.3200       178
     5.5400       154
     5.7600       166
     5.9800       152
     6.2000       184
     6.4200       150
     6.6400       170
     6.8600       150
     7.0800       138
     7.3000       128
     7.5200       144
     7.7400       110
     7.9600       116
     8.1800       140
     8.4000       150
     8.6200       156
     8.8400       120
     9.0600       142
     9.2800       130
     9.5000       126
     9.7200       102
     9.9400        90
    10.1600       120
    10.3800       104
    10.6000        88
    10.8200       112
    11.0400       106
    11.2600       110
    11.4800       128
    11.7000        96
    11.9200        88
    12.1400        98
    12.3600       104
    12.5800       100
    12.8000       206
    13.0200        72
    13.2400        86
    13.4600        76
    13.6800        80
    13.9000        80
    14.1200        62
    14.3400        66
    14.5600        84
    14.7800        74
    15.0000        48
    15.2200        62
    15.4400        72
    15.6600        76
    15.8800        72
    16.1000       224
    16.3200        62
    16.5400        50
    16.7600        64
    16.9800        72
    17.2000        70
    17.4200        64
    17.6400        64
    17.8600        64
    18.0800        58
    18.3000        72
    18.5200        94
    18.7400       178
    18.9600        74
    19.1800        88
    19.4000       142
    19.6200       382
    19.8400       238
    20.0600       104
    20.2800        88
    20.5000       226
    20.7200       304
    20.9400        96
    21.1600        86
    21.3800        88
    21.6000        68
    21.8200       132
    22.0400        86
    22.2600       316
    22.4800       122
    22.7000        82
    22.9200        70
    23.1400       120
    23.3600       134
    23.5800       102
    23.8000        62
    24.0200       120
    24.2400        76
    24.4600        98
    24.6800       110
    24.9000        88
    25.1200        80
    25.3400       118
    25.5600       114
    25.7800        84
    26.0000       300
    26.2200       266
    26.4400      1754
    26.6600       202
    26.8800       122
    27.1000       140
    27.3200       278
    27.5400       358
    27.7600       194
    27.9800       156
    28.2000        90
    28.4200        68
    28.6400        78
    28.8600        70
    29.0800        64
    29.3000        64
    29.5200        96
    29.7400       190
    29.9600       180
    30.1800       368
    30.4000       104
    30.6200        96
    30.8400       166
    31.0600        78
    31.2800        60
    31.5000        46
    31.7200        74
    31.9400        98
    32.1600       186
    32.3800        98
    32.6000       122
    32.8200        82
    33.0400        96
    33.2600        78
    33.4800        76
    33.7000        86
    33.9200        58
    34.1400        70
    34.3600       120
    34.5800       166
    34.8000       182
    35.0200       150
    35.2400        78
    35.4600        78
    35.6800        78
    35.9000        88
    36.1200       108
    36.3400       256
    36.5600       102
    36.7800       136
    37.0000       136
    37.2200        82
    37.4400       110
    37.6600        96
    37.8800       126
    38.1000       162
    38.3200        72
    38.5400        70
    38.7600        86
    38.9800        56
    39.2000       114
    39.4200       158
    39.6400       142
    39.8600        72
    40.0800       110
    40.3000        88
    40.5200        90
    40.7400        50
    40.9600        60
    41.1800        74
    41.4000        66
    41.6200        52
    41.8400        46
    42.0600        78
    42.2800       150
    42.5000        68
    42.7200        70
    42.9400        60
    43.1600        52
    43.3800        54
    43.6000        62
    43.8200        48
    44.0400        68
    44.2600        50
    44.4800        58
    44.7000        44
    44.9200        48
    45.1400        66
    45.3600        72
    45.5800        96
    45.8000        96
    46.0200       106
    46.2400        66
    46.4600        56
    46.6800        66
    46.9000        74
    47.1200        44
    47.3400        42
    47.5600        54
    47.7800        66
    48.0000        66
    48.2200        64
    48.4400        76
    48.6600        74
    48.8800        50
    49.1000        52
    49.3200        58
    49.5400        42
    49.7600        64
    49.9800       262
    50.2000        82
    50.4200        80
    50.6400       104
    50.8600        66
    51.0800        60
    51.3000        54
    51.5200        48
    51.7400        40
    51.9600        48
    52.1800        58
    52.4000        70
    52.6200        52
    52.8400        50
    53.0600        80
    53.2800        72
    53.5000        46
    53.7200        54
    53.9400        54
    54.1600        32
    54.3800        42
    54.6000        86
    54.8200        92
    55.0400       106
    55.2600        90
    55.4800        92
    55.7000        70
    55.9200        58
    56.1400        98
    56.3600        72
    56.5800        54
    56.8000        46
    57.0200        60
    57.2400        56
    57.4600        56
    57.6800        58
    57.9000        62
    58.1200        50
    58.3400        52
    58.5600        64
    58.7800        56
    59.0000        56
    59.2200        64
    59.4400        56
    59.6600        96
    59.8800       140
    60.1000        88
    60.3200        64
    60.5400        52
    60.7600        64
    60.9800        68
    61.2000       116
    61.4200       104
    61.6400        98
    61.8600        66
    62.0800        74
    62.3000        60
    62.5200        52
    62.7400        48
    62.9600        50
    63.1800        34
    63.4000        42
    63.6200        58
    63.8400        86
    64.0600       106
    64.2800        72
    64.5000        60
    64.7200        64
    64.9400        30
    65.0000        48