File: sl1/usgs/library06/DESCRIPT/new_xrd_results_to_be_added/Rhonda_Driscoll_xrd_runs/No.-197.1B---Chlorite.txt
/////////////////////////////////////////////////////////////////////////////////
/// Profile Data Ascii Dump (XRD)                                             ///
/////////////////////////////////////////////////////////////////////////////////

  Group     : Swayze
  Data      : No 197 1B
  File Name : No 197 1B.RAW

# Profile Datafile
          comment             = Chlorite
          date & time         = 08-03-13 06:21:52

# Measurement Condition
    X-ray tube
          target              = Cu
          voltage             = 40.0 (kV)
          current             = 30.0 (mA)
    Slits
          divergence slit     = 2.00000 (deg)
          scatter slit        = 2.00000 (deg)
          receiving slit      = 0.15000 (mm)
    Scanning
          drive axis          = Theta-2Theta
          scan range          =    4.000 -   65.000
          scan mode           = Continuous Scan
          scan speed          =   2.0000 (deg/min)
          sampling pitch      =   0.0200 (deg)
          preset time         =   0.60 (sec)

# Data      [ Total No. = 3051 ]
  <2Theta>   <   I   >
     4.0000       180
     4.2200       194
     4.4400       176
     4.6600       184
     4.8800       158
     5.1000       182
     5.3200       194
     5.5400       212
     5.7600       232
     5.9800       352
     6.2000       286
     6.4200       160
     6.6400       142
     6.8600       136
     7.0800       150
     7.3000       124
     7.5200       140
     7.7400       100
     7.9600       132
     8.1800       124
     8.4000       118
     8.6200       124
     8.8400       128
     9.0600       114
     9.2800       116
     9.5000       140
     9.7200       156
     9.9400       124
    10.1600       104
    10.3800       116
    10.6000       112
    10.8200       144
    11.0400       100
    11.2600        96
    11.4800       106
    11.7000       138
    11.9200       162
    12.1400       336
    12.3600       860
    12.5800       140
    12.8000       102
    13.0200        94
    13.2400        62
    13.4600        94
    13.6800        80
    13.9000        82
    14.1200        78
    14.3400        70
    14.5600        78
    14.7800        80
    15.0000        78
    15.2200        62
    15.4400        68
    15.6600        80
    15.8800        66
    16.1000        86
    16.3200        72
    16.5400        84
    16.7600        60
    16.9800        74
    17.2000        66
    17.4200        78
    17.6400        84
    17.8600        82
    18.0800       106
    18.3000       192
    18.5200       532
    18.7400       274
    18.9600       136
    19.1800       264
    19.4000       190
    19.6200       138
    19.8400       138
    20.0600       100
    20.2800        94
    20.5000       130
    20.7200       122
    20.9400        98
    21.1600       108
    21.3800        90
    21.6000        66
    21.8200       120
    22.0400        76
    22.2600        92
    22.4800        82
    22.7000        90
    22.9200        88
    23.1400        82
    23.3600        88
    23.5800        80
    23.8000        76
    24.0200        82
    24.2400        94
    24.4600       118
    24.6800       252
    24.9000      1006
    25.1200       210
    25.3400       100
    25.5600        74
    25.7800        62
    26.0000        66
    26.2200        56
    26.4400        58
    26.6600        70
    26.8800        64
    27.1000        74
    27.3200        54
    27.5400        64
    27.7600        56
    27.9800        64
    28.2000        40
    28.4200        62
    28.6400        56
    28.8600        62
    29.0800        52
    29.3000        48
    29.5200        78
    29.7400        50
    29.9600        54
    30.1800        60
    30.4000        60
    30.6200        50
    30.8400        46
    31.0600        84
    31.2800       278
    31.5000       122
    31.7200        78
    31.9400        54
    32.1600        60
    32.3800        52
    32.6000        34
    32.8200        54
    33.0400        54
    33.2600        48
    33.4800        94
    33.7000        80
    33.9200        68
    34.1400        84
    34.3600       182
    34.5800       340
    34.8000       180
    35.0200       382
    35.2400       398
    35.4600       136
    35.6800       100
    35.9000       108
    36.1200       112
    36.3400       132
    36.5600       386
    36.7800       276
    37.0000       130
    37.2200       118
    37.4400       174
    37.6600       214
    37.8800       120
    38.1000        56
    38.3200        66
    38.5400        66
    38.7600        68
    38.9800        62
    39.2000        82
    39.4200        94
    39.6400       188
    39.8600       146
    40.0800        80
    40.3000        66
    40.5200        46
    40.7400        56
    40.9600        56
    41.1800        56
    41.4000        34
    41.6200        44
    41.8400        38
    42.0600        48
    42.2800        58
    42.5000        46
    42.7200        52
    42.9400        56
    43.1600        60
    43.3800        62
    43.6000        66
    43.8200        70
    44.0400        72
    44.2600        80
    44.4800       124
    44.7000       142
    44.9200       256
    45.1400       336
    45.3600       120
    45.5800        90
    45.8000        64
    46.0200        46
    46.2400        46
    46.4600        52
    46.6800        48
    46.9000        42
    47.1200        48
    47.3400        50
    47.5600        46
    47.7800        60
    48.0000       110
    48.2200       120
    48.4400        88
    48.6600        64
    48.8800        58
    49.1000        54
    49.3200        60
    49.5400        94
    49.7600       122
    49.9800       106
    50.2000        58
    50.4200        26
    50.6400        34
    50.8600        54
    51.0800        34
    51.3000        40
    51.5200        34
    51.7400        38
    51.9600        30
    52.1800        56
    52.4000        90
    52.6200        68
    52.8400        70
    53.0600        74
    53.2800        80
    53.5000        66
    53.7200        58
    53.9400        52
    54.1600        52
    54.3800        46
    54.6000        64
    54.8200        60
    55.0400        80
    55.2600        72
    55.4800        48
    55.7000        48
    55.9200        44
    56.1400        52
    56.3600        46
    56.5800        58
    56.8000        56
    57.0200        58
    57.2400        52
    57.4600        48
    57.6800        40
    57.9000        70
    58.1200        74
    58.3400        84
    58.5600       150
    58.7800       196
    59.0000       126
    59.2200        94
    59.4400        66
    59.6600       132
    59.8800       302
    60.1000       256
    60.3200       116
    60.5400        82
    60.7600        68
    60.9800        76
    61.2000        74
    61.4200       130
    61.6400       108
    61.8600        62
    62.0800        46
    62.3000        40
    62.5200        50
    62.7400        46
    62.9600        54
    63.1800        62
    63.4000        56
    63.6200        56
    63.8400        44
    64.0600        44
    64.2800        44
    64.5000        34
    64.7200        54
    64.9400        56
    65.0000        40