File: sl1/usgs/library06/DESCRIPT/new_xrd_results_to_be_added/Rhonda_Driscoll_xrd_runs/Olivine-60u-Hoefen.txt
/////////////////////////////////////////////////////////////////////////////////
/// Profile Data Ascii Dump (XRD)                                             ///
/////////////////////////////////////////////////////////////////////////////////

  Group     : Swayze
  Data      : GSB
  File Name : GSB.RAW

# Profile Datafile
          comment             = Olivine-60u-Hoefen
          date & time         = 08-04-28 06:47:29

# Measurement Condition
    X-ray tube
          target              = Cu
          voltage             = 40.0 (kV)
          current             = 30.0 (mA)
    Slits
          divergence slit     = 2.00000 (deg)
          scatter slit        = 2.00000 (deg)
          receiving slit      = 0.15000 (mm)
    Scanning
          drive axis          = Theta-2Theta
          scan range          =    4.000 -   65.000
          scan mode           = Continuous Scan
          scan speed          =   2.0000 (deg/min)
          sampling pitch      =   0.0200 (deg)
          preset time         =   0.60 (sec)

# Data      [ Total No. = 3051 ]
  <2Theta>   <   I   >
     4.0000       176
     4.2200       186
     4.4400       164
     4.6600       154
     4.8800       138
     5.1000       162
     5.3200       164
     5.5400       154
     5.7600       166
     5.9800       164
     6.2000       180
     6.4200       170
     6.6400       122
     6.8600       110
     7.0800       102
     7.3000       134
     7.5200       106
     7.7400       126
     7.9600       110
     8.1800       110
     8.4000       112
     8.6200       130
     8.8400       134
     9.0600       114
     9.2800       122
     9.5000       106
     9.7200       128
     9.9400        90
    10.1600        88
    10.3800       104
    10.6000       104
    10.8200        92
    11.0400        90
    11.2600       104
    11.4800        84
    11.7000        76
    11.9200        84
    12.1400        78
    12.3600        76
    12.5800        76
    12.8000        72
    13.0200        76
    13.2400        74
    13.4600        72
    13.6800        74
    13.9000        72
    14.1200        84
    14.3400        86
    14.5600        74
    14.7800        72
    15.0000        64
    15.2200        66
    15.4400        68
    15.6600        66
    15.8800        84
    16.1000        58
    16.3200        56
    16.5400        72
    16.7600        64
    16.9800       112
    17.2000       306
    17.4200        78
    17.6400        48
    17.8600        54
    18.0800        52
    18.3000        56
    18.5200        60
    18.7400        44
    18.9600        60
    19.1800        48
    19.4000        50
    19.6200        56
    19.8400        56
    20.0600        54
    20.2800        64
    20.5000        62
    20.7200        50
    20.9400        48
    21.1600        50
    21.3800        56
    21.6000        54
    21.8200        56
    22.0400        54
    22.2600        54
    22.4800        98
    22.7000       538
    22.9200        92
    23.1400        64
    23.3600        62
    23.5800        84
    23.8000       174
    24.0200        50
    24.2400        46
    24.4600        52
    24.6800        36
    24.9000        44
    25.1200        74
    25.3400       276
    25.5600       102
    25.7800        46
    26.0000        38
    26.2200        40
    26.4400        34
    26.6600        48
    26.8800        42
    27.1000        32
    27.3200        40
    27.5400        48
    27.7600        30
    27.9800        44
    28.2000        30
    28.4200        34
    28.6400        56
    28.8600        52
    29.0800        56
    29.3000        60
    29.5200       130
    29.7400       188
    29.9600        54
    30.1800        40
    30.4000        40
    30.6200        48
    30.8400        36
    31.0600        40
    31.2800        36
    31.5000        40
    31.7200        50
    31.9400       120
    32.1600       974
    32.3800       114
    32.6000        50
    32.8200        44
    33.0400        36
    33.2600        46
    33.4800        36
    33.7000        40
    33.9200        46
    34.1400        48
    34.3600        46
    34.5800        62
    34.8000        44
    35.0200        66
    35.2400        94
    35.4600       476
    35.6800       544
    35.9000        82
    36.1200       122
    36.3400       804
    36.5600       170
    36.7800        48
    37.0000        64
    37.2200        30
    37.4400        32
    37.6600        38
    37.8800        54
    38.1000       238
    38.3200        62
    38.5400        48
    38.7600        86
    38.9800        58
    39.2000        52
    39.4200       188
    39.6400       336
    39.8600       372
    40.0800       102
    40.3000        30
    40.5200        30
    40.7400        36
    40.9600        42
    41.1800        28
    41.4000        50
    41.6200       140
    41.8400        54
    42.0600        32
    42.2800        38
    42.5000        28
    42.7200        34
    42.9400        30
    43.1600        42
    43.3800        42
    43.6000        24
    43.8200        34
    44.0400        32
    44.2600        52
    44.4800        68
    44.7000        34
    44.9200        38
    45.1400        22
    45.3600        24
    45.5800        34
    45.8000        18
    46.0200        26
    46.2400        34
    46.4600        46
    46.6800        52
    46.9000        36
    47.1200        50
    47.3400        26
    47.5600        28
    47.7800        34
    48.0000        30
    48.2200        74
    48.4400        64
    48.6600        40
    48.8800        44
    49.1000        28
    49.3200        32
    49.5400        30
    49.7600        44
    49.9800        42
    50.2000        84
    50.4200        46
    50.6400        50
    50.8600        64
    51.0800        34
    51.3000        34
    51.5200        34
    51.7400        56
    51.9600       178
    52.1800       388
    52.4000       258
    52.6200        88
    52.8400        56
    53.0600        36
    53.2800        34
    53.5000        32
    53.7200        28
    53.9400        32
    54.1600        34
    54.3800        28
    54.6000        70
    54.8200       108
    55.0400        46
    55.2600        42
    55.4800        38
    55.7000        46
    55.9200       202
    56.1400       100
    56.3600        58
    56.5800       170
    56.8000       190
    57.0200        44
    57.2400        68
    57.4600        42
    57.6800        72
    57.9000        60
    58.1200        38
    58.3400        54
    58.5600        82
    58.7800        62
    59.0000        46
    59.2200        32
    59.4400        46
    59.6600        32
    59.8800        20
    60.1000        40
    60.3200        44
    60.5400        30
    60.7600        42
    60.9800        64
    61.2000        62
    61.4200       122
    61.6400       136
    61.8600       198
    62.0800        68
    62.3000        82
    62.5200       624
    62.7400       266
    62.9600        48
    63.1800        32
    63.4000        38
    63.6200        32
    63.8400        34
    64.0600        46
    64.2800        30
    64.5000        44
    64.7200        44
    64.9400        48
    65.0000        30