File: sl1/usgs/library06/DESCRIPT/new_xrd_results_to_be_added/Rhonda_Driscoll_xrd_runs/RLO-2125.txt
/////////////////////////////////////////////////////////////////////////////////
/// Profile Data Ascii Dump (XRD)                                             ///
/////////////////////////////////////////////////////////////////////////////////

  Group     : Swayze
  Data      : RLO 2125
  File Name : RLO 2125.RAW

# Profile Datafile
          comment             =
          date & time         = 08-03-11 07:38:40

# Measurement Condition
    X-ray tube
          target              = Cu
          voltage             = 40.0 (kV)
          current             = 30.0 (mA)
    Slits
          divergence slit     = 2.00000 (deg)
          scatter slit        = 2.00000 (deg)
          receiving slit      = 0.15000 (mm)
    Scanning
          drive axis          = Theta-2Theta
          scan range          =    4.000 -   65.000
          scan mode           = Continuous Scan
          scan speed          =   2.0000 (deg/min)
          sampling pitch      =   0.0200 (deg)
          preset time         =   0.60 (sec)

# Data      [ Total No. = 3051 ]
  <2Theta>   <   I   >
     4.0000       216
     4.2200       230
     4.4400       192
     4.6600       206
     4.8800       170
     5.1000       166
     5.3200       168
     5.5400       166
     5.7600       186
     5.9800       174
     6.2000       162
     6.4200       146
     6.6400       150
     6.8600       142
     7.0800       146
     7.3000       110
     7.5200       122
     7.7400       132
     7.9600       118
     8.1800       144
     8.4000       130
     8.6200       154
     8.8400       180
     9.0600       122
     9.2800       102
     9.5000       110
     9.7200       110
     9.9400        90
    10.1600       108
    10.3800        92
    10.6000        98
    10.8200       132
    11.0400       114
    11.2600       102
    11.4800       122
    11.7000       194
    11.9200       456
    12.1400      1438
    12.3600      1648
    12.5800       214
    12.8000       116
    13.0200        72
    13.2400        84
    13.4600        64
    13.6800        56
    13.9000        72
    14.1200        56
    14.3400        72
    14.5600        54
    14.7800        74
    15.0000        58
    15.2200        54
    15.4400        58
    15.6600        52
    15.8800        54
    16.1000        56
    16.3200        62
    16.5400        50
    16.7600        48
    16.9800        56
    17.2000        54
    17.4200        46
    17.6400        82
    17.8600        66
    18.0800        58
    18.3000        48
    18.5200        64
    18.7400        52
    18.9600        52
    19.1800        48
    19.4000        88
    19.6200       168
    19.8400       296
    20.0600       260
    20.2800       434
    20.5000       280
    20.7200       214
    20.9400       252
    21.1600       458
    21.3800       338
    21.6000       174
    21.8200       156
    22.0400       156
    22.2600       124
    22.4800       138
    22.7000       180
    22.9200       250
    23.1400       204
    23.3600       126
    23.5800       166
    23.8000       154
    24.0200       108
    24.2400       158
    24.4600       418
    24.6800      1732
    24.9000      1438
    25.1200       260
    25.3400       150
    25.5600       114
    25.7800       108
    26.0000       128
    26.2200       202
    26.4400       148
    26.6600       178
    26.8800        98
    27.1000        78
    27.3200        86
    27.5400        70
    27.7600        68
    27.9800        84
    28.2000       106
    28.4200        86
    28.6400        78
    28.8600        60
    29.0800        56
    29.3000        62
    29.5200        66
    29.7400        84
    29.9600        46
    30.1800        38
    30.4000        48
    30.6200        54
    30.8400        52
    31.0600        70
    31.2800        48
    31.5000        62
    31.7200        38
    31.9400        44
    32.1600        78
    32.3800       100
    32.6000        56
    32.8200        46
    33.0400        40
    33.2600        54
    33.4800        46
    33.7000        42
    33.9200        44
    34.1400        42
    34.3600        70
    34.5800        90
    34.8000       294
    35.0200       212
    35.2400       208
    35.4600       166
    35.6800       230
    35.9000       340
    36.1200       114
    36.3400        60
    36.5600        54
    36.7800        66
    37.0000        80
    37.2200        88
    37.4400       156
    37.6600       342
    37.8800       138
    38.1000       290
    38.3200       606
    38.5400       314
    38.7600       152
    38.9800       256
    39.2000       356
    39.4200       114
    39.6400        68
    39.8600        84
    40.0800        72
    40.3000        64
    40.5200        58
    40.7400        66
    40.9600        88
    41.1800        88
    41.4000        48
    41.6200        50
    41.8400        56
    42.0600        52
    42.2800        62
    42.5000        52
    42.7200        38
    42.9400        44
    43.1600        40
    43.3800        30
    43.6000        38
    43.8200        52
    44.0400        28
    44.2600        42
    44.4800        30
    44.7000        46
    44.9200        76
    45.1400       118
    45.3600       222
    45.5800       182
    45.8000        94
    46.0200        64
    46.2400        92
    46.4600        86
    46.6800       104
    46.9000        92
    47.1200        64
    47.3400        86
    47.5600        74
    47.7800        84
    48.0000        66
    48.2200        70
    48.4400        58
    48.6600        60
    48.8800        52
    49.1000        78
    49.3200        98
    49.5400        82
    49.7600        42
    49.9800        48
    50.2000        50
    50.4200        62
    50.6400        66
    50.8600       154
    51.0800       124
    51.3000        52
    51.5200        40
    51.7400        38
    51.9600        42
    52.1800        44
    52.4000        38
    52.6200        38
    52.8400        46
    53.0600        44
    53.2800        48
    53.5000        44
    53.7200        58
    53.9400        46
    54.1600        92
    54.3800       102
    54.6000       118
    54.8200       198
    55.0400       296
    55.2600       210
    55.4800       144
    55.7000       118
    55.9200        98
    56.1400        90
    56.3600       132
    56.5800       158
    56.8000       170
    57.0200        92
    57.2400        62
    57.4600        56
    57.6800        56
    57.9000        88
    58.1200        94
    58.3400        64
    58.5600        56
    58.7800        48
    59.0000        48
    59.2200        60
    59.4400        88
    59.6600       112
    59.8800       116
    60.1000        90
    60.3200        78
    60.5400        50
    60.7600        68
    60.9800        44
    61.2000        68
    61.4200        48
    61.6400        46
    61.8600        88
    62.0800       234
    62.3000       266
    62.5200       108
    62.7400        62
    62.9600        56
    63.1800        70
    63.4000        60
    63.6200        74
    63.8400        84
    64.0600        78
    64.2800        74
    64.5000        64
    64.7200        58
    64.9400        44
    65.0000        90