File: sl1/usgs/library06/DESCRIPT/new_xrd_results_to_be_added/Rhonda_Driscoll_xrd_runs/RLO-2126.txt
/////////////////////////////////////////////////////////////////////////////////
/// Profile Data Ascii Dump (XRD)                                             ///
/////////////////////////////////////////////////////////////////////////////////

  Group     : Swayze
  Data      : RLO 2126
  File Name : RLO 2126.RAW

# Profile Datafile
          comment             =
          date & time         = 08-03-11 08:09:36

# Measurement Condition
    X-ray tube
          target              = Cu
          voltage             = 40.0 (kV)
          current             = 30.0 (mA)
    Slits
          divergence slit     = 2.00000 (deg)
          scatter slit        = 2.00000 (deg)
          receiving slit      = 0.15000 (mm)
    Scanning
          drive axis          = Theta-2Theta
          scan range          =    4.000 -   65.000
          scan mode           = Continuous Scan
          scan speed          =   2.0000 (deg/min)
          sampling pitch      =   0.0200 (deg)
          preset time         =   0.60 (sec)

# Data      [ Total No. = 3051 ]
  <2Theta>   <   I   >
     4.0000       212
     4.2200       236
     4.4400       188
     4.6600       188
     4.8800       176
     5.1000       174
     5.3200       162
     5.5400       156
     5.7600       176
     5.9800       160
     6.2000       166
     6.4200       148
     6.6400       146
     6.8600       132
     7.0800       122
     7.3000       110
     7.5200       114
     7.7400       138
     7.9600       140
     8.1800       150
     8.4000       146
     8.6200       196
     8.8400       296
     9.0600       118
     9.2800       124
     9.5000       110
     9.7200       104
     9.9400       108
    10.1600       112
    10.3800        94
    10.6000       108
    10.8200       102
    11.0400       120
    11.2600       128
    11.4800       118
    11.7000       212
    11.9200       478
    12.1400      1568
    12.3600      3174
    12.5800       240
    12.8000       124
    13.0200        86
    13.2400        76
    13.4600        62
    13.6800        72
    13.9000        60
    14.1200        74
    14.3400        64
    14.5600        50
    14.7800        52
    15.0000        58
    15.2200        56
    15.4400        64
    15.6600        64
    15.8800        52
    16.1000        58
    16.3200        56
    16.5400        58
    16.7600        52
    16.9800        58
    17.2000        64
    17.4200        58
    17.6400       136
    17.8600        84
    18.0800        50
    18.3000        38
    18.5200        52
    18.7400        52
    18.9600        50
    19.1800        50
    19.4000        58
    19.6200       148
    19.8400       242
    20.0600       174
    20.2800       342
    20.5000       144
    20.7200       154
    20.9400       212
    21.1600       334
    21.3800       202
    21.6000       142
    21.8200       124
    22.0400       120
    22.2600       110
    22.4800       108
    22.7000       122
    22.9200       210
    23.1400       192
    23.3600       106
    23.5800       148
    23.8000       138
    24.0200       146
    24.2400       192
    24.4600       418
    24.6800      2186
    24.9000      2608
    25.1200       306
    25.3400       148
    25.5600        98
    25.7800        98
    26.0000       134
    26.2200       192
    26.4400       198
    26.6600       394
    26.8800       116
    27.1000        94
    27.3200        58
    27.5400        72
    27.7600        80
    27.9800        72
    28.2000       100
    28.4200        66
    28.6400        88
    28.8600        68
    29.0800        58
    29.3000        42
    29.5200        62
    29.7400        68
    29.9600        68
    30.1800        54
    30.4000        50
    30.6200        68
    30.8400        44
    31.0600        74
    31.2800        46
    31.5000        62
    31.7200        56
    31.9400        60
    32.1600        78
    32.3800       104
    32.6000        60
    32.8200        56
    33.0400        48
    33.2600        48
    33.4800        46
    33.7000        54
    33.9200        50
    34.1400        48
    34.3600        46
    34.5800        86
    34.8000       210
    35.0200       186
    35.2400       142
    35.4600       144
    35.6800       176
    35.9000       272
    36.1200       102
    36.3400        64
    36.5600        68
    36.7800        50
    37.0000        66
    37.2200        70
    37.4400       194
    37.6600       578
    37.8800       120
    38.1000       192
    38.3200       506
    38.5400       242
    38.7600        90
    38.9800       178
    39.2000       350
    39.4200       102
    39.6400        54
    39.8600        60
    40.0800        62
    40.3000        68
    40.5200        70
    40.7400        56
    40.9600        82
    41.1800        82
    41.4000        60
    41.6200        36
    41.8400        62
    42.0600        52
    42.2800        86
    42.5000        62
    42.7200        40
    42.9400        38
    43.1600        42
    43.3800        42
    43.6000        58
    43.8200        50
    44.0400        38
    44.2600        48
    44.4800        36
    44.7000        46
    44.9200        62
    45.1400       172
    45.3600       256
    45.5800       204
    45.8000        90
    46.0200        68
    46.2400        60
    46.4600        84
    46.6800       106
    46.9000        92
    47.1200        70
    47.3400        70
    47.5600        62
    47.7800        86
    48.0000        90
    48.2200        52
    48.4400        74
    48.6600        60
    48.8800        44
    49.1000        50
    49.3200        86
    49.5400        78
    49.7600        48
    49.9800        54
    50.2000        48
    50.4200        58
    50.6400        58
    50.8600       182
    51.0800       184
    51.3000        52
    51.5200        34
    51.7400        38
    51.9600        42
    52.1800        40
    52.4000        42
    52.6200        40
    52.8400        34
    53.0600        48
    53.2800        60
    53.5000        60
    53.7200        40
    53.9400        40
    54.1600        70
    54.3800        82
    54.6000        90
    54.8200       184
    55.0400       252
    55.2600       224
    55.4800       140
    55.7000       106
    55.9200       106
    56.1400        84
    56.3600        92
    56.5800       148
    56.8000       156
    57.0200        84
    57.2400        64
    57.4600        58
    57.6800        68
    57.9000        84
    58.1200       102
    58.3400        80
    58.5600        50
    58.7800        48
    59.0000        48
    59.2200        60
    59.4400        90
    59.6600       122
    59.8800       128
    60.1000       126
    60.3200        84
    60.5400        72
    60.7600        58
    60.9800        36
    61.2000        56
    61.4200        60
    61.6400        48
    61.8600        56
    62.0800       126
    62.3000       184
    62.5200        94
    62.7400        38
    62.9600        58
    63.1800        66
    63.4000        52
    63.6200        74
    63.8400        76
    64.0600        82
    64.2800        82
    64.5000        62
    64.7200        40
    64.9400        94
    65.0000       104