File: sl1/usgs/library06/DESCRIPT/new_xrd_results_to_be_added/Rhonda_Driscoll_xrd_runs/RLO-2127.txt
/////////////////////////////////////////////////////////////////////////////////
/// Profile Data Ascii Dump (XRD)                                             ///
/////////////////////////////////////////////////////////////////////////////////

  Group     : Swayze
  Data      : RLO 2127
  File Name : RLO 2127.RAW

# Profile Datafile
          comment             =
          date & time         = 08-03-11 07:07:41

# Measurement Condition
    X-ray tube
          target              = Cu
          voltage             = 40.0 (kV)
          current             = 30.0 (mA)
    Slits
          divergence slit     = 2.00000 (deg)
          scatter slit        = 2.00000 (deg)
          receiving slit      = 0.15000 (mm)
    Scanning
          drive axis          = Theta-2Theta
          scan range          =    4.000 -   65.000
          scan mode           = Continuous Scan
          scan speed          =   2.0000 (deg/min)
          sampling pitch      =   0.0200 (deg)
          preset time         =   0.60 (sec)

# Data      [ Total No. = 3051 ]
  <2Theta>   <   I   >
     4.0000       222
     4.2200       208
     4.4400       188
     4.6600       192
     4.8800       222
     5.1000       178
     5.3200       210
     5.5400       216
     5.7600       208
     5.9800       192
     6.2000       236
     6.4200       226
     6.6400       224
     6.8600       194
     7.0800       168
     7.3000       164
     7.5200       156
     7.7400       148
     7.9600       120
     8.1800       142
     8.4000       144
     8.6200       142
     8.8400       216
     9.0600       118
     9.2800       116
     9.5000       142
     9.7200        94
     9.9400       104
    10.1600       114
    10.3800       116
    10.6000       120
    10.8200       116
    11.0400       108
    11.2600       118
    11.4800       122
    11.7000       126
    11.9200       258
    12.1400       622
    12.3600      1292
    12.5800       202
    12.8000       132
    13.0200        86
    13.2400        88
    13.4600        98
    13.6800        62
    13.9000       100
    14.1200        76
    14.3400        56
    14.5600        54
    14.7800        68
    15.0000        64
    15.2200        70
    15.4400        70
    15.6600        58
    15.8800        64
    16.1000        80
    16.3200        60
    16.5400        60
    16.7600        52
    16.9800        64
    17.2000        62
    17.4200        82
    17.6400        72
    17.8600        64
    18.0800        76
    18.3000        60
    18.5200        56
    18.7400        58
    18.9600        64
    19.1800        62
    19.4000        94
    19.6200       124
    19.8400       260
    20.0600       158
    20.2800       222
    20.5000       172
    20.7200       206
    20.9400       246
    21.1600       226
    21.3800       234
    21.6000       156
    21.8200       118
    22.0400       108
    22.2600       124
    22.4800       174
    22.7000       134
    22.9200       178
    23.1400       204
    23.3600       212
    23.5800       176
    23.8000       170
    24.0200       136
    24.2400       154
    24.4600       246
    24.6800       716
    24.9000      1274
    25.1200       276
    25.3400       154
    25.5600       186
    25.7800       158
    26.0000       124
    26.2200       142
    26.4400       176
    26.6600       358
    26.8800       284
    27.1000       204
    27.3200       194
    27.5400       200
    27.7600       126
    27.9800        64
    28.2000        72
    28.4200        88
    28.6400       106
    28.8600        76
    29.0800        74
    29.3000        72
    29.5200       102
    29.7400       156
    29.9600       100
    30.1800        86
    30.4000        66
    30.6200        86
    30.8400        94
    31.0600        76
    31.2800        66
    31.5000        46
    31.7200        54
    31.9400        68
    32.1600        78
    32.3800        92
    32.6000        62
    32.8200        54
    33.0400        44
    33.2600        46
    33.4800        52
    33.7000        48
    33.9200        44
    34.1400        68
    34.3600       100
    34.5800       136
    34.8000       202
    35.0200       254
    35.2400       150
    35.4600       202
    35.6800       124
    35.9000       250
    36.1200       130
    36.3400        86
    36.5600        76
    36.7800        54
    37.0000        92
    37.2200        62
    37.4400       106
    37.6600       270
    37.8800       134
    38.1000       142
    38.3200       286
    38.5400       258
    38.7600       160
    38.9800       138
    39.2000       198
    39.4200       126
    39.6400        68
    39.8600        54
    40.0800        72
    40.3000        76
    40.5200        62
    40.7400        74
    40.9600        74
    41.1800        78
    41.4000        82
    41.6200        86
    41.8400        94
    42.0600        78
    42.2800        76
    42.5000        82
    42.7200        56
    42.9400        46
    43.1600        46
    43.3800        38
    43.6000        50
    43.8200        58
    44.0400        60
    44.2600        54
    44.4800        46
    44.7000        68
    44.9200        58
    45.1400        96
    45.3600       158
    45.5800       132
    45.8000       102
    46.0200        82
    46.2400        72
    46.4600        80
    46.6800        82
    46.9000       116
    47.1200        68
    47.3400        64
    47.5600        70
    47.7800        66
    48.0000        76
    48.2200        56
    48.4400        52
    48.6600        56
    48.8800        54
    49.1000        76
    49.3200        82
    49.5400        78
    49.7600        54
    49.9800        40
    50.2000        56
    50.4200        56
    50.6400        92
    50.8600       122
    51.0800       130
    51.3000        64
    51.5200        56
    51.7400        46
    51.9600        36
    52.1800        40
    52.4000        38
    52.6200        56
    52.8400        52
    53.0600        52
    53.2800        36
    53.5000        40
    53.7200        46
    53.9400        58
    54.1600        86
    54.3800        76
    54.6000        94
    54.8200       138
    55.0400       184
    55.2600       166
    55.4800       130
    55.7000        96
    55.9200        92
    56.1400        86
    56.3600       106
    56.5800       116
    56.8000       104
    57.0200        76
    57.2400        66
    57.4600        60
    57.6800        68
    57.9000        64
    58.1200        80
    58.3400        70
    58.5600        74
    58.7800        52
    59.0000        74
    59.2200        62
    59.4400        56
    59.6600        82
    59.8800       100
    60.1000        92
    60.3200        72
    60.5400        70
    60.7600        62
    60.9800        46
    61.2000        60
    61.4200        90
    61.6400        84
    61.8600        86
    62.0800       142
    62.3000       170
    62.5200        94
    62.7400        78
    62.9600        58
    63.1800        62
    63.4000        78
    63.6200        66
    63.8400        78
    64.0600        88
    64.2800        78
    64.5000        72
    64.7200        66
    64.9400        78
    65.0000        66