File: sl1/usgs/library06/DESCRIPT/new_xrd_results_to_be_added/Rhonda_Driscoll_xrd_runs/SBS-03-1---Opal-A.txt
/////////////////////////////////////////////////////////////////////////////////
/// Profile Data Ascii Dump (XRD)                                             ///
/////////////////////////////////////////////////////////////////////////////////

  Group     : Swayze
  Data      : SBS-03-1
  File Name : SBS-03-1.RAW

# Profile Datafile
          comment             = Opal-A
          date & time         = 08-03-12 07:00:21

# Measurement Condition
    X-ray tube
          target              = Cu
          voltage             = 40.0 (kV)
          current             = 30.0 (mA)
    Slits
          divergence slit     = 2.00000 (deg)
          scatter slit        = 2.00000 (deg)
          receiving slit      = 0.15000 (mm)
    Scanning
          drive axis          = Theta-2Theta
          scan range          =    4.000 -   65.000
          scan mode           = Continuous Scan
          scan speed          =   2.0000 (deg/min)
          sampling pitch      =   0.0200 (deg)
          preset time         =   0.60 (sec)

# Data      [ Total No. = 3051 ]
  <2Theta>   <   I   >
     4.0000       226
     4.2200       210
     4.4400       182
     4.6600       170
     4.8800       174
     5.1000       182
     5.3200       196
     5.5400       192
     5.7600       188
     5.9800       192
     6.2000       158
     6.4200       158
     6.6400       166
     6.8600       162
     7.0800       126
     7.3000       148
     7.5200       142
     7.7400       160
     7.9600       150
     8.1800       144
     8.4000       152
     8.6200       176
     8.8400       146
     9.0600       152
     9.2800       126
     9.5000       156
     9.7200       146
     9.9400       126
    10.1600       146
    10.3800       136
    10.6000       128
    10.8200       106
    11.0400       128
    11.2600       120
    11.4800       116
    11.7000       102
    11.9200       110
    12.1400       106
    12.3600       118
    12.5800       106
    12.8000       102
    13.0200        94
    13.2400        90
    13.4600       104
    13.6800        98
    13.9000       108
    14.1200        90
    14.3400       106
    14.5600        96
    14.7800       102
    15.0000       118
    15.2200       108
    15.4400       124
    15.6600       114
    15.8800       118
    16.1000       120
    16.3200       108
    16.5400       146
    16.7600       130
    16.9800       114
    17.2000       134
    17.4200       168
    17.6400       130
    17.8600       176
    18.0800       178
    18.3000       182
    18.5200       170
    18.7400       188
    18.9600       202
    19.1800       202
    19.4000       216
    19.6200       224
    19.8400       270
    20.0600       240
    20.2800       268
    20.5000       298
    20.7200       364
    20.9400       296
    21.1600       296
    21.3800       320
    21.6000       304
    21.8200       336
    22.0400       290
    22.2600       270
    22.4800       270
    22.7000       302
    22.9200       298
    23.1400       284
    23.3600       294
    23.5800       278
    23.8000       258
    24.0200       264
    24.2400       254
    24.4600       250
    24.6800       264
    24.9000       240
    25.1200       248
    25.3400       234
    25.5600       288
    25.7800       228
    26.0000       190
    26.2200       194
    26.4400       284
    26.6600       256
    26.8800       182
    27.1000       170
    27.3200       196
    27.5400       200
    27.7600       256
    27.9800       324
    28.2000       180
    28.4200       148
    28.6400       158
    28.8600       144
    29.0800       126
    29.3000       106
    29.5200       122
    29.7400       122
    29.9600       144
    30.1800       142
    30.4000       136
    30.6200       116
    30.8400       122
    31.0600       124
    31.2800       114
    31.5000       122
    31.7200       128
    31.9400       126
    32.1600       118
    32.3800       104
    32.6000       112
    32.8200       114
    33.0400        86
    33.2600        98
    33.4800       120
    33.7000        80
    33.9200        94
    34.1400       104
    34.3600       104
    34.5800       110
    34.8000        96
    35.0200       100
    35.2400        80
    35.4600       104
    35.6800        96
    35.9000        98
    36.1200       112
    36.3400        96
    36.5600        84
    36.7800        90
    37.0000        88
    37.2200        94
    37.4400        90
    37.6600        94
    37.8800        96
    38.1000       106
    38.3200        82
    38.5400        76
    38.7600        82
    38.9800        80
    39.2000        88
    39.4200        92
    39.6400        82
    39.8600        78
    40.0800        96
    40.3000        80
    40.5200        84
    40.7400        60
    40.9600        72
    41.1800        90
    41.4000        90
    41.6200        88
    41.8400        80
    42.0600        74
    42.2800        82
    42.5000        76
    42.7200        82
    42.9400        84
    43.1600        62
    43.3800        72
    43.6000        76
    43.8200        90
    44.0400        90
    44.2600        70
    44.4800        84
    44.7000        68
    44.9200        66
    45.1400        82
    45.3600        78
    45.5800        86
    45.8000        92
    46.0200        84
    46.2400        64
    46.4600        76
    46.6800        78
    46.9000        68
    47.1200        86
    47.3400        68
    47.5600        62
    47.7800        66
    48.0000        76
    48.2200        66
    48.4400        70
    48.6600        56
    48.8800        76
    49.1000        64
    49.3200        68
    49.5400        70
    49.7600        64
    49.9800        88
    50.2000        88
    50.4200        64
    50.6400        66
    50.8600        62
    51.0800        74
    51.3000        64
    51.5200        62
    51.7400        74
    51.9600        78
    52.1800        68
    52.4000        70
    52.6200        56
    52.8400        74
    53.0600        80
    53.2800        68
    53.5000        78
    53.7200        82
    53.9400        80
    54.1600        66
    54.3800        58
    54.6000        78
    54.8200        92
    55.0400        66
    55.2600        76
    55.4800        70
    55.7000        72
    55.9200        70
    56.1400        82
    56.3600        74
    56.5800        82
    56.8000        76
    57.0200        90
    57.2400        68
    57.4600        76
    57.6800        68
    57.9000        68
    58.1200        74
    58.3400        60
    58.5600        64
    58.7800        64
    59.0000        84
    59.2200        78
    59.4400        72
    59.6600        60
    59.8800        88
    60.1000        82
    60.3200        64
    60.5400        52
    60.7600        74
    60.9800        76
    61.2000        82
    61.4200        74
    61.6400        74
    61.8600        74
    62.0800        58
    62.3000        66
    62.5200        78
    62.7400        88
    62.9600        66
    63.1800        64
    63.4000        76
    63.6200        92
    63.8400        92
    64.0600        80
    64.2800        74
    64.5000        68
    64.7200        72
    64.9400        66
    65.0000        90