File: sl1/usgs/library06/DESCRIPT/new_xrd_results_to_be_added/Rhonda_Driscoll_xrd_runs/SCF-NHJ-4-AmmonioJaro.txt
/////////////////////////////////////////////////////////////////////////////////
/// Profile Data Ascii Dump (XRD)                                             ///
/////////////////////////////////////////////////////////////////////////////////

  Group     : Swayze
  Data      : SCF-NHJ-A
  File Name : SCF-NHJ-A.RAW

# Profile Datafile
          comment             = AmmonioJarosite
          date & time         = 08-04-09 07:51:18

# Measurement Condition
    X-ray tube
          target              = Cu
          voltage             = 40.0 (kV)
          current             = 30.0 (mA)
    Slits
          divergence slit     = 2.00000 (deg)
          scatter slit        = 2.00000 (deg)
          receiving slit      = 0.15000 (mm)
    Scanning
          drive axis          = Theta-2Theta
          scan range          =    4.000 -   65.000
          scan mode           = Continuous Scan
          scan speed          =   2.0000 (deg/min)
          sampling pitch      =   0.0200 (deg)
          preset time         =   0.60 (sec)

# Data      [ Total No. = 3051 ]
  <2Theta>   <   I   >
     4.0000       178
     4.2200       188
     4.4400       138
     4.6600       174
     4.8800       178
     5.1000       160
     5.3200       124
     5.5400       154
     5.7600       178
     5.9800       134
     6.2000       162
     6.4200       150
     6.6400       120
     6.8600       114
     7.0800       108
     7.3000       126
     7.5200       124
     7.7400       108
     7.9600       130
     8.1800       118
     8.4000       102
     8.6200       110
     8.8400       122
     9.0600       108
     9.2800       104
     9.5000       100
     9.7200       102
     9.9400       116
    10.1600        86
    10.3800       128
    10.6000        88
    10.8200        88
    11.0400       102
    11.2600        90
    11.4800        78
    11.7000        84
    11.9200        86
    12.1400        82
    12.3600        86
    12.5800        98
    12.8000        80
    13.0200        74
    13.2400        80
    13.4600        56
    13.6800        76
    13.9000        68
    14.1200        82
    14.3400        82
    14.5600        82
    14.7800       178
    15.0000       164
    15.2200       196
    15.4400        56
    15.6600        60
    15.8800        62
    16.1000        54
    16.3200        58
    16.5400        54
    16.7600        86
    16.9800       188
    17.2000       872
    17.4200       100
    17.6400        68
    17.8600        70
    18.0800        54
    18.3000        44
    18.5200        54
    18.7400        50
    18.9600        38
    19.1800        54
    19.4000        56
    19.6200        52
    19.8400        44
    20.0600        42
    20.2800        58
    20.5000        54
    20.7200        56
    20.9400        48
    21.1600        46
    21.3800        50
    21.6000        46
    21.8200        50
    22.0400        44
    22.2600        40
    22.4800        36
    22.7000        42
    22.9200        42
    23.1400        44
    23.3600        44
    23.5800        50
    23.8000        40
    24.0200        52
    24.2400       134
    24.4600        54
    24.6800       112
    24.9000        40
    25.1200        38
    25.3400        36
    25.5600        50
    25.7800        60
    26.0000        40
    26.2200        50
    26.4400        46
    26.6600        26
    26.8800        56
    27.1000        38
    27.3200        42
    27.5400        68
    27.7600        46
    27.9800        68
    28.2000        96
    28.4200       490
    28.6400      1160
    28.8600       340
    29.0800       126
    29.3000        52
    29.5200        50
    29.7400        74
    29.9600        76
    30.1800        42
    30.4000       110
    30.6200       150
    30.8400        28
    31.0600        50
    31.2800        36
    31.5000        42
    31.7200        56
    31.9400        40
    32.1600        38
    32.3800        36
    32.6000        32
    32.8200        30
    33.0400        34
    33.2600        44
    33.4800        28
    33.7000        34
    33.9200        34
    34.1400        32
    34.3600        40
    34.5800        44
    34.8000       168
    35.0200        90
    35.2400        44
    35.4600        38
    35.6800        28
    35.9000        18
    36.1200        30
    36.3400        38
    36.5600        40
    36.7800        40
    37.0000        48
    37.2200        34
    37.4400        36
    37.6600        36
    37.8800        40
    38.1000        54
    38.3200        62
    38.5400       302
    38.7600       184
    38.9800        46
    39.2000        28
    39.4200        52
    39.6400        38
    39.8600        32
    40.0800        24
    40.3000        36
    40.5200        28
    40.7400        28
    40.9600        34
    41.1800        24
    41.4000        38
    41.6200        36
    41.8400        20
    42.0600        28
    42.2800        34
    42.5000        44
    42.7200        38
    42.9400        40
    43.1600        20
    43.3800        22
    43.6000        32
    43.8200        30
    44.0400        26
    44.2600        34
    44.4800        28
    44.7000        28
    44.9200        32
    45.1400        46
    45.3600       124
    45.5800       352
    45.8000        68
    46.0200        98
    46.2400       110
    46.4600        82
    46.6800        94
    46.9000        40
    47.1200        32
    47.3400        36
    47.5600        36
    47.7800        24
    48.0000        20
    48.2200        36
    48.4400        36
    48.6600        34
    48.8800        38
    49.1000        38
    49.3200        36
    49.5400        78
    49.7600       284
    49.9800        54
    50.2000        36
    50.4200        48
    50.6400        60
    50.8600        50
    51.0800        30
    51.3000        34
    51.5200        24
    51.7400        26
    51.9600        32
    52.1800        70
    52.4000        90
    52.6200        36
    52.8400        54
    53.0600       100
    53.2800        46
    53.5000        22
    53.7200        28
    53.9400        30
    54.1600        28
    54.3800        36
    54.6000        22
    54.8200        30
    55.0400        36
    55.2600        40
    55.4800        30
    55.7000        24
    55.9200        38
    56.1400        46
    56.3600        78
    56.5800        44
    56.8000        72
    57.0200        78
    57.2400        36
    57.4600        32
    57.6800        44
    57.9000        38
    58.1200        46
    58.3400        98
    58.5600        72
    58.7800        50
    59.0000        64
    59.2200        96
    59.4400       150
    59.6600       102
    59.8800        50
    60.1000       124
    60.3200       168
    60.5400        76
    60.7600        34
    60.9800        40
    61.2000        30
    61.4200        32
    61.6400        34
    61.8600        38
    62.0800        72
    62.3000        58
    62.5200        26
    62.7400        26
    62.9600        32
    63.1800        36
    63.4000        40
    63.6200        32
    63.8400        18
    64.0600        46
    64.2800        70
    64.5000        66
    64.7200        86
    64.9400        82
    65.0000        70