File: sl1/usgs/library06/DESCRIPT/new_xrd_results_to_be_added/Rhonda_Driscoll_xrd_runs/SCF-NHJ-B-AmmonioJarosite.txt
/////////////////////////////////////////////////////////////////////////////////
/// Profile Data Ascii Dump (XRD)                                             ///
/////////////////////////////////////////////////////////////////////////////////

  Group     : Swayze
  Data      : SCF-NHJ-B
  File Name : SCF-NHJ-B.RAW

# Profile Datafile
          comment             = AmmonioJarosite
          date & time         = 08-04-14 06:49:38

# Measurement Condition
    X-ray tube
          target              = Cu
          voltage             = 40.0 (kV)
          current             = 30.0 (mA)
    Slits
          divergence slit     = 2.00000 (deg)
          scatter slit        = 2.00000 (deg)
          receiving slit      = 0.15000 (mm)
    Scanning
          drive axis          = Theta-2Theta
          scan range          =    4.000 -   65.000
          scan mode           = Continuous Scan
          scan speed          =   2.0000 (deg/min)
          sampling pitch      =   0.0200 (deg)
          preset time         =   0.60 (sec)

# Data      [ Total No. = 3051 ]
  <2Theta>   <   I   >
     4.0000       200
     4.2200       194
     4.4400       146
     4.6600       184
     4.8800       178
     5.1000       198
     5.3200       188
     5.5400       176
     5.7600       176
     5.9800       170
     6.2000       140
     6.4200       134
     6.6400       146
     6.8600       136
     7.0800       134
     7.3000       146
     7.5200       130
     7.7400       132
     7.9600       106
     8.1800       116
     8.4000       132
     8.6200       128
     8.8400       128
     9.0600       122
     9.2800       122
     9.5000       110
     9.7200        98
     9.9400       128
    10.1600       110
    10.3800       124
    10.6000       106
    10.8200       112
    11.0400        98
    11.2600        86
    11.4800        82
    11.7000        92
    11.9200        96
    12.1400       106
    12.3600        88
    12.5800        86
    12.8000        72
    13.0200        82
    13.2400        86
    13.4600        92
    13.6800        70
    13.9000        52
    14.1200        72
    14.3400        64
    14.5600       100
    14.7800       210
    15.0000       224
    15.2200        84
    15.4400        62
    15.6600        72
    15.8800        52
    16.1000        60
    16.3200        70
    16.5400        74
    16.7600       100
    16.9800       262
    17.2000       686
    17.4200        94
    17.6400        84
    17.8600        62
    18.0800        60
    18.3000        66
    18.5200        64
    18.7400        48
    18.9600        54
    19.1800        54
    19.4000        64
    19.6200        72
    19.8400        56
    20.0600        50
    20.2800        64
    20.5000        50
    20.7200        52
    20.9400        54
    21.1600        56
    21.3800        56
    21.6000        70
    21.8200        44
    22.0400        40
    22.2600        60
    22.4800        40
    22.7000        52
    22.9200        38
    23.1400        52
    23.3600        52
    23.5800        50
    23.8000        54
    24.0200        70
    24.2400        82
    24.4600        78
    24.6800       100
    24.9000        46
    25.1200        44
    25.3400        48
    25.5600        56
    25.7800        54
    26.0000        44
    26.2200        48
    26.4400        42
    26.6600        34
    26.8800        44
    27.1000        60
    27.3200        56
    27.5400        36
    27.7600        56
    27.9800        52
    28.2000       130
    28.4200      1000
    28.6400      1304
    28.8600       114
    29.0800        78
    29.3000        46
    29.5200        40
    29.7400        84
    29.9600        74
    30.1800        42
    30.4000       152
    30.6200       100
    30.8400        54
    31.0600        34
    31.2800        42
    31.5000        48
    31.7200        42
    31.9400        36
    32.1600        42
    32.3800        24
    32.6000        40
    32.8200        30
    33.0400        38
    33.2600        48
    33.4800        34
    33.7000        42
    33.9200        30
    34.1400        34
    34.3600        42
    34.5800        58
    34.8000       220
    35.0200        56
    35.2400        48
    35.4600        38
    35.6800        32
    35.9000        32
    36.1200        32
    36.3400        34
    36.5600        36
    36.7800        28
    37.0000        44
    37.2200        36
    37.4400        36
    37.6600        42
    37.8800        46
    38.1000        58
    38.3200        80
    38.5400       356
    38.7600       108
    38.9800        44
    39.2000        44
    39.4200        46
    39.6400        34
    39.8600        26
    40.0800        46
    40.3000        32
    40.5200        32
    40.7400        40
    40.9600        30
    41.1800        28
    41.4000        42
    41.6200        32
    41.8400        34
    42.0600        34
    42.2800        28
    42.5000        42
    42.7200        46
    42.9400        36
    43.1600        32
    43.3800        26
    43.6000        40
    43.8200        32
    44.0400        32
    44.2600        34
    44.4800        26
    44.7000        44
    44.9200        46
    45.1400        44
    45.3600       174
    45.5800       238
    45.8000        54
    46.0200       106
    46.2400        70
    46.4600       122
    46.6800        80
    46.9000        40
    47.1200        28
    47.3400        28
    47.5600        36
    47.7800        28
    48.0000        36
    48.2200        46
    48.4400        28
    48.6600        34
    48.8800        40
    49.1000        36
    49.3200        40
    49.5400       226
    49.7600       192
    49.9800        42
    50.2000        46
    50.4200        82
    50.6400        68
    50.8600        24
    51.0800        30
    51.3000        26
    51.5200        44
    51.7400        36
    51.9600        38
    52.1800       104
    52.4000        60
    52.6200        38
    52.8400        82
    53.0600        84
    53.2800        50
    53.5000        34
    53.7200        34
    53.9400        38
    54.1600        36
    54.3800        30
    54.6000        42
    54.8200        38
    55.0400        38
    55.2600        42
    55.4800        40
    55.7000        34
    55.9200        44
    56.1400        66
    56.3600        58
    56.5800        46
    56.8000        92
    57.0200        44
    57.2400        42
    57.4600        36
    57.6800        46
    57.9000        32
    58.1200        44
    58.3400        72
    58.5600        76
    58.7800        46
    59.0000        90
    59.2200        90
    59.4400       160
    59.6600        80
    59.8800        70
    60.1000       128
    60.3200       168
    60.5400        62
    60.7600        44
    60.9800        36
    61.2000        36
    61.4200        26
    61.6400        38
    61.8600        36
    62.0800        92
    62.3000        48
    62.5200        34
    62.7400        46
    62.9600        34
    63.1800        20
    63.4000        32
    63.6200        26
    63.8400        36
    64.0600        38
    64.2800        70
    64.5000        64
    64.7200        82
    64.9400        90
    65.0000        66