File: sl1/usgs/library06/DESCRIPT/new_xrd_results_to_be_added/Rhonda_Driscoll_xrd_runs/WS219---Goethite.txt
/////////////////////////////////////////////////////////////////////////////////
/// Profile Data Ascii Dump (XRD)                                             ///
/////////////////////////////////////////////////////////////////////////////////

  Group     : Swayze
  Data      : WS219
  File Name : WS219.RAW

# Profile Datafile
          comment             = Goethite
          date & time         = 08-03-14 06:24:56

# Measurement Condition
    X-ray tube
          target              = Cu
          voltage             = 40.0 (kV)
          current             = 30.0 (mA)
    Slits
          divergence slit     = 2.00000 (deg)
          scatter slit        = 2.00000 (deg)
          receiving slit      = 0.15000 (mm)
    Scanning
          drive axis          = Theta-2Theta
          scan range          =    4.000 -   65.000
          scan mode           = Continuous Scan
          scan speed          =   2.0000 (deg/min)
          sampling pitch      =   0.0200 (deg)
          preset time         =   0.60 (sec)

# Data      [ Total No. = 3051 ]
  <2Theta>   <   I   >
     4.0000       182
     4.2200       198
     4.4400       204
     4.6600       158
     4.8800       168
     5.1000       166
     5.3200       166
     5.5400       160
     5.7600       168
     5.9800       178
     6.2000       170
     6.4200       176
     6.6400       132
     6.8600       134
     7.0800       120
     7.3000       144
     7.5200       120
     7.7400       124
     7.9600       108
     8.1800       114
     8.4000       140
     8.6200       138
     8.8400       106
     9.0600       116
     9.2800       116
     9.5000       124
     9.7200       122
     9.9400       122
    10.1600       108
    10.3800       104
    10.6000       112
    10.8200        88
    11.0400       104
    11.2600       102
    11.4800        82
    11.7000        78
    11.9200       100
    12.1400        88
    12.3600        98
    12.5800        90
    12.8000        80
    13.0200        86
    13.2400        86
    13.4600        60
    13.6800        76
    13.9000       120
    14.1200       128
    14.3400        74
    14.5600        84
    14.7800        62
    15.0000        64
    15.2200        88
    15.4400        80
    15.6600        72
    15.8800        44
    16.1000        52
    16.3200        58
    16.5400        70
    16.7600        56
    16.9800        52
    17.2000        72
    17.4200        64
    17.6400        66
    17.8600        62
    18.0800        60
    18.3000        60
    18.5200        44
    18.7400        54
    18.9600        60
    19.1800        46
    19.4000        62
    19.6200        68
    19.8400        68
    20.0600        70
    20.2800        78
    20.5000        76
    20.7200       228
    20.9400       124
    21.1600       166
    21.3800        98
    21.6000        78
    21.8200        68
    22.0400        60
    22.2600        70
    22.4800        52
    22.7000        62
    22.9200        54
    23.1400        64
    23.3600        36
    23.5800        40
    23.8000        42
    24.0200        62
    24.2400        64
    24.4600        60
    24.6800        58
    24.9000        56
    25.1200        54
    25.3400        54
    25.5600        46
    25.7800        56
    26.0000        58
    26.2200        88
    26.4400       414
    26.6600       234
    26.8800       182
    27.1000        88
    27.3200        36
    27.5400        50
    27.7600        30
    27.9800        32
    28.2000        50
    28.4200        40
    28.6400        48
    28.8600        48
    29.0800        36
    29.3000        36
    29.5200        60
    29.7400        54
    29.9600        32
    30.1800        28
    30.4000        28
    30.6200        50
    30.8400        36
    31.0600        46
    31.2800        36
    31.5000        44
    31.7200        44
    31.9400        38
    32.1600        44
    32.3800        46
    32.6000        36
    32.8200        64
    33.0400        92
    33.2600        70
    33.4800        64
    33.7000        52
    33.9200        54
    34.1400        50
    34.3600        60
    34.5800        74
    34.8000        72
    35.0200        66
    35.2400        60
    35.4600        72
    35.6800        56
    35.9000        88
    36.1200       194
    36.3400       188
    36.5600       214
    36.7800       126
    37.0000        70
    37.2200        52
    37.4400        30
    37.6600        48
    37.8800        64
    38.1000        54
    38.3200        54
    38.5400        36
    38.7600        38
    38.9800        38
    39.2000        52
    39.4200        72
    39.6400        54
    39.8600        68
    40.0800        72
    40.3000        78
    40.5200        48
    40.7400        54
    40.9600        48
    41.1800        76
    41.4000        58
    41.6200        40
    41.8400        38
    42.0600        32
    42.2800        62
    42.5000        40
    42.7200        40
    42.9400        28
    43.1600        50
    43.3800        44
    43.6000        30
    43.8200        40
    44.0400        40
    44.2600        32
    44.4800        46
    44.7000        56
    44.9200        32
    45.1400        38
    45.3600        40
    45.5800        56
    45.8000        38
    46.0200        40
    46.2400        44
    46.4600        58
    46.6800       134
    46.9000        88
    47.1200        58
    47.3400        56
    47.5600        42
    47.7800        44
    48.0000        46
    48.2200        36
    48.4400        38
    48.6600        36
    48.8800        44
    49.1000        70
    49.3200        44
    49.5400        40
    49.7600        42
    49.9800       122
    50.2000        66
    50.4200        44
    50.6400        46
    50.8600        28
    51.0800        46
    51.3000        32
    51.5200        36
    51.7400        40
    51.9600        38
    52.1800        38
    52.4000        54
    52.6200        88
    52.8400        72
    53.0600       124
    53.2800        74
    53.5000        70
    53.7200        54
    53.9400        58
    54.1600        58
    54.3800        56
    54.6000        44
    54.8200        84
    55.0400        44
    55.2600        38
    55.4800        38
    55.7000        34
    55.9200        40
    56.1400        40
    56.3600        34
    56.5800        36
    56.8000        40
    57.0200        44
    57.2400        50
    57.4600        40
    57.6800        38
    57.9000        34
    58.1200        36
    58.3400        44
    58.5600        64
    58.7800        58
    59.0000        82
    59.2200        66
    59.4400        60
    59.6600        38
    59.8800        82
    60.1000        70
    60.3200        66
    60.5400        80
    60.7600        70
    60.9800        34
    61.2000        80
    61.4200        68
    61.6400        50
    61.8600        42
    62.0800        68
    62.3000        34
    62.5200        38
    62.7400        32
    62.9600        34
    63.1800        36
    63.4000        38
    63.6200        36
    63.8400        60
    64.0600        64
    64.2800        60
    64.5000        42
    64.7200        56
    64.9400        46
    65.0000        48