File: sl1/usgs/library06/DESCRIPT/new_xrd_results_to_be_added/Rhonda_Driscoll_xrd_runs/WS220-Goethite.txt
/////////////////////////////////////////////////////////////////////////////////
/// Profile Data Ascii Dump (XRD)                                             ///
/////////////////////////////////////////////////////////////////////////////////

  Group     : Swayze
  Data      : WS220
  File Name : WS220.RAW

# Profile Datafile
          comment             = Geothite
          date & time         = 08-04-08 07:29:36

# Measurement Condition
    X-ray tube
          target              = Cu
          voltage             = 40.0 (kV)
          current             = 30.0 (mA)
    Slits
          divergence slit     = 2.00000 (deg)
          scatter slit        = 2.00000 (deg)
          receiving slit      = 0.15000 (mm)
    Scanning
          drive axis          = Theta-2Theta
          scan range          =    4.000 -   65.000
          scan mode           = Continuous Scan
          scan speed          =   2.0000 (deg/min)
          sampling pitch      =   0.0200 (deg)
          preset time         =   0.60 (sec)

# Data      [ Total No. = 3051 ]
  <2Theta>   <   I   >
     4.0000       194
     4.2200       178
     4.4400       174
     4.6600       182
     4.8800       174
     5.1000       176
     5.3200       158
     5.5400       158
     5.7600       160
     5.9800       152
     6.2000       162
     6.4200       158
     6.6400       146
     6.8600        98
     7.0800       120
     7.3000       136
     7.5200       114
     7.7400       112
     7.9600       128
     8.1800       120
     8.4000       104
     8.6200       144
     8.8400       116
     9.0600       104
     9.2800       104
     9.5000       120
     9.7200       116
     9.9400       116
    10.1600       118
    10.3800       120
    10.6000       112
    10.8200       108
    11.0400       104
    11.2600        98
    11.4800       102
    11.7000        86
    11.9200        96
    12.1400        74
    12.3600        68
    12.5800        84
    12.8000        84
    13.0200        80
    13.2400        50
    13.4600        64
    13.6800        62
    13.9000        82
    14.1200        90
    14.3400        82
    14.5600        70
    14.7800        60
    15.0000        44
    15.2200        70
    15.4400        62
    15.6600        64
    15.8800        52
    16.1000        62
    16.3200        58
    16.5400        52
    16.7600        64
    16.9800        58
    17.2000        56
    17.4200        72
    17.6400        64
    17.8600        56
    18.0800        62
    18.3000        60
    18.5200        64
    18.7400        54
    18.9600        62
    19.1800        62
    19.4000        42
    19.6200        50
    19.8400        46
    20.0600        68
    20.2800        66
    20.5000       100
    20.7200       684
    20.9400       136
    21.1600       164
    21.3800        88
    21.6000        70
    21.8200        52
    22.0400        52
    22.2600        42
    22.4800        34
    22.7000        44
    22.9200        48
    23.1400        46
    23.3600        44
    23.5800        44
    23.8000        54
    24.0200        52
    24.2400        46
    24.4600        46
    24.6800        46
    24.9000        46
    25.1200        48
    25.3400        50
    25.5600        60
    25.7800        58
    26.0000        88
    26.2200       176
    26.4400      1158
    26.6600       550
    26.8800        68
    27.1000        48
    27.3200        44
    27.5400        42
    27.7600        40
    27.9800        28
    28.2000        40
    28.4200        44
    28.6400        40
    28.8600        40
    29.0800        40
    29.3000        40
    29.5200        32
    29.7400        50
    29.9600        42
    30.1800        40
    30.4000        26
    30.6200        42
    30.8400        36
    31.0600        36
    31.2800        28
    31.5000        38
    31.7200        38
    31.9400        48
    32.1600        52
    32.3800        36
    32.6000        70
    32.8200        70
    33.0400       110
    33.2600       114
    33.4800        62
    33.7000        56
    33.9200        52
    34.1400        36
    34.3600        60
    34.5800        84
    34.8000        72
    35.0200        50
    35.2400        60
    35.4600        72
    35.6800        86
    35.9000        74
    36.1200        82
    36.3400       194
    36.5600       250
    36.7800        84
    37.0000        48
    37.2200        38
    37.4400        40
    37.6600        26
    37.8800        28
    38.1000        48
    38.3200        32
    38.5400        46
    38.7600        28
    38.9800        38
    39.2000        60
    39.4200       136
    39.6400        50
    39.8600        76
    40.0800        72
    40.3000        86
    40.5200        46
    40.7400        36
    40.9600        60
    41.1800        50
    41.4000        50
    41.6200        24
    41.8400        26
    42.0600        38
    42.2800       190
    42.5000        58
    42.7200        38
    42.9400        26
    43.1600        44
    43.3800        36
    43.6000        28
    43.8200        34
    44.0400        32
    44.2600        36
    44.4800        26
    44.7000        24
    44.9200        36
    45.1400        44
    45.3600        26
    45.5800        54
    45.8000        94
    46.0200        30
    46.2400        28
    46.4600        26
    46.6800        28
    46.9000        34
    47.1200        44
    47.3400        36
    47.5600        36
    47.7800        34
    48.0000        32
    48.2200        32
    48.4400        34
    48.6600        28
    48.8800        42
    49.1000        42
    49.3200        46
    49.5400        30
    49.7600        50
    49.9800       410
    50.2000       164
    50.4200        50
    50.6400        30
    50.8600        28
    51.0800        42
    51.3000        40
    51.5200        24
    51.7400        38
    51.9600        28
    52.1800        26
    52.4000        26
    52.6200        40
    52.8400        72
    53.0600        82
    53.2800        58
    53.5000        60
    53.7200        62
    53.9400        56
    54.1600        50
    54.3800        56
    54.6000        56
    54.8200       140
    55.0400        52
    55.2600        58
    55.4800        34
    55.7000        22
    55.9200        32
    56.1400        34
    56.3600        28
    56.5800        34
    56.8000        32
    57.0200        40
    57.2400        46
    57.4600        48
    57.6800        50
    57.9000        30
    58.1200        42
    58.3400        40
    58.5600        48
    58.7800        60
    59.0000        68
    59.2200        50
    59.4400        38
    59.6600        54
    59.8800       280
    60.1000        72
    60.3200        36
    60.5400        24
    60.7600        40
    60.9800        54
    61.2000        44
    61.4200        54
    61.6400        30
    61.8600        42
    62.0800        46
    62.3000        42
    62.5200        28
    62.7400        40
    62.9600        42
    63.1800        42
    63.4000        36
    63.6200        44
    63.8400        82
    64.0600        80
    64.2800        30
    64.5000        36
    64.7200        34
    64.9400        32
    65.0000        26