File: sl1/usgs/library06/DESCRIPT/new_xrd_results_to_be_added/Rhonda_Driscoll_xrd_runs/WS416-Fluorapatite.txt
/////////////////////////////////////////////////////////////////////////////////
/// Profile Data Ascii Dump (XRD)                                             ///
/////////////////////////////////////////////////////////////////////////////////

  Group     : Swayze
  Data      : WS416
  File Name : WS416.RAW

# Profile Datafile
          comment             = Fluorapatite
          date & time         = 08-04-08 09:29:58

# Measurement Condition
    X-ray tube
          target              = Cu
          voltage             = 40.0 (kV)
          current             = 30.0 (mA)
    Slits
          divergence slit     = 2.00000 (deg)
          scatter slit        = 2.00000 (deg)
          receiving slit      = 0.15000 (mm)
    Scanning
          drive axis          = Theta-2Theta
          scan range          =    4.000 -   65.000
          scan mode           = Continuous Scan
          scan speed          =   2.0000 (deg/min)
          sampling pitch      =   0.0200 (deg)
          preset time         =   0.60 (sec)

# Data      [ Total No. = 3051 ]
  <2Theta>   <   I   >
     4.0000       194
     4.2200       186
     4.4400       144
     4.6600       152
     4.8800       150
     5.1000       130
     5.3200       130
     5.5400       156
     5.7600       146
     5.9800       156
     6.2000       152
     6.4200       128
     6.6400       118
     6.8600       114
     7.0800       110
     7.3000       100
     7.5200        78
     7.7400        96
     7.9600       102
     8.1800       112
     8.4000       108
     8.6200       116
     8.8400       100
     9.0600       114
     9.2800        96
     9.5000        96
     9.7200       108
     9.9400       104
    10.1600        84
    10.3800       122
    10.6000        74
    10.8200        96
    11.0400       106
    11.2600        72
    11.4800        66
    11.7000        58
    11.9200        66
    12.1400        76
    12.3600        76
    12.5800        78
    12.8000        74
    13.0200        70
    13.2400        72
    13.4600        56
    13.6800        64
    13.9000        46
    14.1200        64
    14.3400        56
    14.5600        60
    14.7800        60
    15.0000        58
    15.2200        46
    15.4400        42
    15.6600        46
    15.8800        72
    16.1000        46
    16.3200        36
    16.5400        44
    16.7600        42
    16.9800        46
    17.2000        40
    17.4200        40
    17.6400        36
    17.8600        36
    18.0800        44
    18.3000        40
    18.5200        30
    18.7400        46
    18.9600        34
    19.1800        52
    19.4000        46
    19.6200        36
    19.8400        36
    20.0600        38
    20.2800        36
    20.5000        32
    20.7200        34
    20.9400        42
    21.1600        50
    21.3800        30
    21.6000        46
    21.8200        68
    22.0400       110
    22.2600        38
    22.4800        36
    22.7000        32
    22.9200        52
    23.1400        20
    23.3600        26
    23.5800        34
    23.8000        22
    24.0200        24
    24.2400        32
    24.4600        38
    24.6800        26
    24.9000        34
    25.1200        22
    25.3400        34
    25.5600        50
    25.7800       128
    26.0000        48
    26.2200        20
    26.4400        24
    26.6600        28
    26.8800        20
    27.1000        32
    27.3200        28
    27.5400        24
    27.7600        30
    27.9800        40
    28.2000        40
    28.4200        20
    28.6400        26
    28.8600        28
    29.0800        60
    29.3000        52
    29.5200        26
    29.7400        16
    29.9600        20
    30.1800        16
    30.4000        24
    30.6200        30
    30.8400        20
    31.0600        26
    31.2800        24
    31.5000        42
    31.7200       198
    31.9400       176
    32.1600       162
    32.3800        54
    32.6000        36
    32.8200       136
    33.0400       278
    33.2600      1360
    33.4800        32
    33.7000        18
    33.9200        44
    34.1400       114
    34.3600        30
    34.5800        14
    34.8000        26
    35.0200        30
    35.2400        14
    35.4600        36
    35.6800        38
    35.9000        18
    36.1200        14
    36.3400        14
    36.5600        22
    36.7800        16
    37.0000        14
    37.2200        16
    37.4400        18
    37.6600        16
    37.8800        20
    38.1000        12
    38.3200        22
    38.5400        26
    38.7600        22
    38.9800        18
    39.2000        60
    39.4200        34
    39.6400        30
    39.8600       146
    40.0800        58
    40.3000        22
    40.5200        52
    40.7400        22
    40.9600        10
    41.1800        20
    41.4000        24
    41.6200        14
    41.8400        26
    42.0600        44
    42.2800        22
    42.5000        30
    42.7200        16
    42.9400        16
    43.1600        18
    43.3800        12
    43.6000        18
    43.8200        36
    44.0400        22
    44.2600        20
    44.4800        18
    44.7000        14
    44.9200        22
    45.1400        24
    45.3600        62
    45.5800        22
    45.8000        14
    46.0200        22
    46.2400        18
    46.4600        10
    46.6800        60
    46.9000        68
    47.1200        24
    47.3400        14
    47.5600        22
    47.7800        20
    48.0000        14
    48.2200        52
    48.4400        18
    48.6600        34
    48.8800        50
    49.1000        22
    49.3200        52
    49.5400       248
    49.7600        28
    49.9800        10
    50.2000        28
    50.4200        24
    50.6400       102
    50.8600        36
    51.0800        22
    51.3000        32
    51.5200        60
    51.7400        18
    51.9600        20
    52.1800       124
    52.4000        42
    52.6200        20
    52.8400        22
    53.0600        34
    53.2800        78
    53.5000        44
    53.7200        16
    53.9400        10
    54.1600        24
    54.3800        22
    54.6000        14
    54.8200        24
    55.0400        20
    55.2600        12
    55.4800        16
    55.7000        20
    55.9200        66
    56.1400        60
    56.3600        26
    56.5800        16
    56.8000        22
    57.0200        12
    57.2400        28
    57.4600        24
    57.6800        18
    57.9000        20
    58.1200        22
    58.3400        54
    58.5600        30
    58.7800        20
    59.0000        24
    59.2200        20
    59.4400        18
    59.6600        18
    59.8800        18
    60.1000       120
    60.3200        38
    60.5400        28
    60.7600        32
    60.9800        18
    61.2000        16
    61.4200        20
    61.6400        36
    61.8600        48
    62.0800        30
    62.3000        16
    62.5200        18
    62.7400        18
    62.9600        22
    63.1800        94
    63.4000        38
    63.6200        12
    63.8400        22
    64.0600        38
    64.2800        54
    64.5000        30
    64.7200        24
    64.9400        20
    65.0000        16