File: sl1/usgs/library06/DESCRIPT/new_xrd_results_to_be_added/Rhonda_Driscoll_xrd_runs/WS425-Apatite-hydroxyl.txt
/////////////////////////////////////////////////////////////////////////////////
/// Profile Data Ascii Dump (XRD)                                             ///
/////////////////////////////////////////////////////////////////////////////////

  Group     : Swayze
  Data      : WS425
  File Name : WS425.RAW

# Profile Datafile
          comment             = Apatite-hydroxyl
          date & time         = 08-04-08 10:00:56

# Measurement Condition
    X-ray tube
          target              = Cu
          voltage             = 40.0 (kV)
          current             = 30.0 (mA)
    Slits
          divergence slit     = 2.00000 (deg)
          scatter slit        = 2.00000 (deg)
          receiving slit      = 0.15000 (mm)
    Scanning
          drive axis          = Theta-2Theta
          scan range          =    4.000 -   65.000
          scan mode           = Continuous Scan
          scan speed          =   2.0000 (deg/min)
          sampling pitch      =   0.0200 (deg)
          preset time         =   0.60 (sec)

# Data      [ Total No. = 3051 ]
  <2Theta>   <   I   >
     4.0000       170
     4.2200       176
     4.4400       142
     4.6600       156
     4.8800       142
     5.1000       152
     5.3200       132
     5.5400       140
     5.7600       138
     5.9800       146
     6.2000       154
     6.4200       142
     6.6400       126
     6.8600       112
     7.0800       114
     7.3000       104
     7.5200       116
     7.7400       108
     7.9600       106
     8.1800       112
     8.4000       116
     8.6200        96
     8.8400       116
     9.0600       116
     9.2800       100
     9.5000       114
     9.7200       108
     9.9400        92
    10.1600       100
    10.3800        96
    10.6000        96
    10.8200       114
    11.0400       100
    11.2600        74
    11.4800        78
    11.7000        90
    11.9200        74
    12.1400        86
    12.3600        68
    12.5800        64
    12.8000        66
    13.0200        60
    13.2400        50
    13.4600        64
    13.6800        64
    13.9000        60
    14.1200        62
    14.3400        58
    14.5600        58
    14.7800        48
    15.0000        64
    15.2200        54
    15.4400        64
    15.6600        46
    15.8800        50
    16.1000        44
    16.3200        46
    16.5400        46
    16.7600        50
    16.9800        42
    17.2000        56
    17.4200        60
    17.6400        36
    17.8600        48
    18.0800        44
    18.3000        38
    18.5200        48
    18.7400        68
    18.9600        48
    19.1800        38
    19.4000        46
    19.6200        56
    19.8400        64
    20.0600        46
    20.2800        50
    20.5000        46
    20.7200        62
    20.9400        32
    21.1600        50
    21.3800        38
    21.6000        50
    21.8200        72
    22.0400        44
    22.2600        38
    22.4800        40
    22.7000        52
    22.9200        72
    23.1400        42
    23.3600        42
    23.5800        34
    23.8000        38
    24.0200        34
    24.2400        28
    24.4600        38
    24.6800        38
    24.9000        32
    25.1200        40
    25.3400        68
    25.5600       138
    25.7800       244
    26.0000        54
    26.2200        48
    26.4400       102
    26.6600        62
    26.8800        46
    27.1000        32
    27.3200        44
    27.5400        34
    27.7600        52
    27.9800       120
    28.2000        66
    28.4200        40
    28.6400        48
    28.8600        82
    29.0800       122
    29.3000        46
    29.5200        28
    29.7400        36
    29.9600        26
    30.1800        42
    30.4000        32
    30.6200        34
    30.8400        48
    31.0600        42
    31.2800        50
    31.5000       104
    31.7200       476
    31.9400       594
    32.1600       376
    32.3800        88
    32.6000        64
    32.8200       140
    33.0400       416
    33.2600       114
    33.4800        40
    33.7000        48
    33.9200       134
    34.1400       162
    34.3600        46
    34.5800        42
    34.8000        28
    35.0200        36
    35.2400        28
    35.4600        42
    35.6800        52
    35.9000        22
    36.1200        20
    36.3400        22
    36.5600        30
    36.7800        20
    37.0000        22
    37.2200        24
    37.4400        28
    37.6600        22
    37.8800        34
    38.1000        32
    38.3200        34
    38.5400        24
    38.7600        26
    38.9800        34
    39.2000        62
    39.4200        48
    39.6400        52
    39.8600       134
    40.0800       138
    40.3000        64
    40.5200        48
    40.7400        40
    40.9600        36
    41.1800        28
    41.4000        18
    41.6200        44
    41.8400        38
    42.0600        62
    42.2800        50
    42.5000        40
    42.7200        38
    42.9400        26
    43.1600        22
    43.3800        16
    43.6000        34
    43.8200        50
    44.0400        30
    44.2600        30
    44.4800        28
    44.7000        42
    44.9200        26
    45.1400        58
    45.3600        48
    45.5800        32
    45.8000        26
    46.0200        26
    46.2400        26
    46.4600        46
    46.6800       154
    46.9000       180
    47.1200        48
    47.3400        30
    47.5600        30
    47.7800        26
    48.0000        58
    48.2200       124
    48.4400        48
    48.6600        42
    48.8800        58
    49.1000        54
    49.3200       124
    49.5400       216
    49.7600        72
    49.9800        42
    50.2000        40
    50.4200        50
    50.6400       118
    50.8600        86
    51.0800        42
    51.3000        50
    51.5200       106
    51.7400        56
    51.9600        38
    52.1800       106
    52.4000        70
    52.6200        24
    52.8400        62
    53.0600       134
    53.2800        50
    53.5000        38
    53.7200        38
    53.9400        26
    54.1600        24
    54.3800        24
    54.6000        28
    54.8200        30
    55.0400        24
    55.2600        28
    55.4800        20
    55.7000        22
    55.9200        58
    56.1400        50
    56.3600        32
    56.5800        20
    56.8000        22
    57.0200        34
    57.2400        28
    57.4600        28
    57.6800        20
    57.9000        22
    58.1200        34
    58.3400        26
    58.5600        34
    58.7800        32
    59.0000        32
    59.2200        28
    59.4400        16
    59.6600        32
    59.8800        30
    60.1000        40
    60.3200        54
    60.5400        36
    60.7600        42
    60.9800        38
    61.2000        38
    61.4200        30
    61.6400        52
    61.8600        44
    62.0800        34
    62.3000        32
    62.5200        24
    62.7400        22
    62.9600        22
    63.1800        84
    63.4000        72
    63.6200        54
    63.8400        60
    64.0600        74
    64.2800        70
    64.5000        46
    64.7200        20
    64.9400        24
    65.0000        20