File: sl1/usgs/library06/DESCRIPT/new_xrd_results_to_be_added/Rhonda_Driscoll_xrd_runs/WS423-Chlorapatite.txt
/////////////////////////////////////////////////////////////////////////////////
/// Profile Data Ascii Dump (XRD)                                             ///
/////////////////////////////////////////////////////////////////////////////////

  Group     : Swayze
  Data      : WS423
  File Name : WS423.RAW

# Profile Datafile
          comment             = Chlorapatite
          date & time         = 08-04-08 06:58:39

# Measurement Condition
    X-ray tube
          target              = Cu
          voltage             = 40.0 (kV)
          current             = 30.0 (mA)
    Slits
          divergence slit     = 2.00000 (deg)
          scatter slit        = 2.00000 (deg)
          receiving slit      = 0.15000 (mm)
    Scanning
          drive axis          = Theta-2Theta
          scan range          =    4.000 -   65.000
          scan mode           = Continuous Scan
          scan speed          =   2.0000 (deg/min)
          sampling pitch      =   0.0200 (deg)
          preset time         =   0.60 (sec)

# Data      [ Total No. = 3051 ]
  <2Theta>   <   I   >
     4.0000       186
     4.2200       168
     4.4400       190
     4.6600       152
     4.8800       182
     5.1000       174
     5.3200       166
     5.5400       138
     5.7600       146
     5.9800       150
     6.2000       138
     6.4200       160
     6.6400       124
     6.8600       128
     7.0800       126
     7.3000       116
     7.5200       116
     7.7400        98
     7.9600       118
     8.1800       114
     8.4000       126
     8.6200       124
     8.8400       128
     9.0600       120
     9.2800       108
     9.5000       120
     9.7200       104
     9.9400       108
    10.1600       116
    10.3800        82
    10.6000       112
    10.8200        94
    11.0400        86
    11.2600        96
    11.4800        76
    11.7000        80
    11.9200        96
    12.1400        72
    12.3600        76
    12.5800        68
    12.8000        78
    13.0200        58
    13.2400        70
    13.4600        68
    13.6800        76
    13.9000        64
    14.1200        74
    14.3400        68
    14.5600        62
    14.7800        62
    15.0000        68
    15.2200        44
    15.4400        62
    15.6600        50
    15.8800        54
    16.1000        66
    16.3200        56
    16.5400        62
    16.7600       120
    16.9800        46
    17.2000        42
    17.4200        56
    17.6400        52
    17.8600        42
    18.0800        50
    18.3000        42
    18.5200        32
    18.7400        46
    18.9600        36
    19.1800        42
    19.4000        52
    19.6200        44
    19.8400        40
    20.0600        42
    20.2800        48
    20.5000        42
    20.7200        62
    20.9400        34
    21.1600        44
    21.3800        42
    21.6000        58
    21.8200        40
    22.0400        48
    22.2600        34
    22.4800        50
    22.7000        50
    22.9200        54
    23.1400        36
    23.3600        38
    23.5800        42
    23.8000        24
    24.0200        44
    24.2400        34
    24.4600        32
    24.6800        28
    24.9000        66
    25.1200        44
    25.3400        38
    25.5600        30
    25.7800        52
    26.0000        96
    26.2200       166
    26.4400        60
    26.6600        66
    26.8800        26
    27.1000        36
    27.3200        36
    27.5400        32
    27.7600        40
    27.9800        32
    28.2000       110
    28.4200        58
    28.6400        34
    28.8600        36
    29.0800        36
    29.3000        40
    29.5200        30
    29.7400        44
    29.9600        32
    30.1800        34
    30.4000        28
    30.6200        32
    30.8400        52
    31.0600       184
    31.2800       818
    31.5000        84
    31.7200        64
    31.9400       168
    32.1600      1992
    32.3800       138
    32.6000        62
    32.8200        38
    33.0400        30
    33.2600        30
    33.4800        36
    33.7000        48
    33.9200       186
    34.1400        44
    34.3600        30
    34.5800        24
    34.8000        80
    35.0200        32
    35.2400        24
    35.4600        34
    35.6800        34
    35.9000        30
    36.1200        34
    36.3400        30
    36.5600        34
    36.7800        30
    37.0000        30
    37.2200        26
    37.4400        30
    37.6600        26
    37.8800        30
    38.1000        24
    38.3200        26
    38.5400        30
    38.7600        86
    38.9800       222
    39.2000        36
    39.4200        36
    39.6400        40
    39.8600        32
    40.0800        24
    40.3000        34
    40.5200        22
    40.7400        24
    40.9600        26
    41.1800       158
    41.4000        48
    41.6200        26
    41.8400        46
    42.0600        48
    42.2800        28
    42.5000        30
    42.7200        34
    42.9400        22
    43.1600        24
    43.3800        36
    43.6000        24
    43.8200        28
    44.0400        58
    44.2600        50
    44.4800        22
    44.7000        22
    44.9200        20
    45.1400        32
    45.3600        34
    45.5800        48
    45.8000        30
    46.0200       100
    46.2400       348
    46.4600        48
    46.6800        34
    46.9000        30
    47.1200        22
    47.3400        34
    47.5600        88
    47.7800        30
    48.0000        30
    48.2200        18
    48.4400        26
    48.6600        26
    48.8800        26
    49.1000        42
    49.3200        88
    49.5400       416
    49.7600        60
    49.9800        44
    50.2000       128
    50.4200        30
    50.6400        26
    50.8600        26
    51.0800        28
    51.3000        60
    51.5200        56
    51.7400        18
    51.9600        42
    52.1800        32
    52.4000        26
    52.6200        22
    52.8400        18
    53.0600        32
    53.2800        30
    53.5000        28
    53.7200        36
    53.9400       144
    54.1600        40
    54.3800        32
    54.6000        28
    54.8200        22
    55.0400        78
    55.2600        46
    55.4800        32
    55.7000        26
    55.9200        20
    56.1400        18
    56.3600        24
    56.5800        30
    56.8000       110
    57.0200        72
    57.2400        34
    57.4600        66
    57.6800        36
    57.9000        34
    58.1200        24
    58.3400        28
    58.5600        84
    58.7800        40
    59.0000        18
    59.2200        48
    59.4400        30
    59.6600        22
    59.8800        28
    60.1000        28
    60.3200        56
    60.5400        22
    60.7600        28
    60.9800        20
    61.2000        22
    61.4200        20
    61.6400        20
    61.8600        42
    62.0800        78
    62.3000        24
    62.5200        22
    62.7400        16
    62.9600        34
    63.1800        22
    63.4000        32
    63.6200       174
    63.8400        88
    64.0600        42
    64.2800        50
    64.5000        22
    64.7200        30
    64.9400        28
    65.0000        28