File: sl1/usgs/library06/DESCRIPT/new_xrd_results_to_be_added/Rhonda_Driscoll_xrd_runs/WS479---Almandine.txt
/////////////////////////////////////////////////////////////////////////////////
/// Profile Data Ascii Dump (XRD)                                             ///
/////////////////////////////////////////////////////////////////////////////////

  Group     : Swayze
  Data      : WS479
  File Name : WS479.RAW

# Profile Datafile
          comment             = Almandine
          date & time         = 08-03-14 06:55:54

# Measurement Condition
    X-ray tube
          target              = Cu
          voltage             = 40.0 (kV)
          current             = 30.0 (mA)
    Slits
          divergence slit     = 2.00000 (deg)
          scatter slit        = 2.00000 (deg)
          receiving slit      = 0.15000 (mm)
    Scanning
          drive axis          = Theta-2Theta
          scan range          =    4.000 -   65.000
          scan mode           = Continuous Scan
          scan speed          =   2.0000 (deg/min)
          sampling pitch      =   0.0200 (deg)
          preset time         =   0.60 (sec)

# Data      [ Total No. = 3051 ]
  <2Theta>   <   I   >
     4.0000       210
     4.2200       200
     4.4400       200
     4.6600       166
     4.8800       150
     5.1000       164
     5.3200       162
     5.5400       142
     5.7600       148
     5.9800       134
     6.2000       178
     6.4200       160
     6.6400       134
     6.8600       122
     7.0800       114
     7.3000       106
     7.5200       148
     7.7400       142
     7.9600       118
     8.1800       126
     8.4000       118
     8.6200       150
     8.8400       146
     9.0600       154
     9.2800       102
     9.5000       122
     9.7200       108
     9.9400       118
    10.1600        98
    10.3800       104
    10.6000       120
    10.8200        84
    11.0400        90
    11.2600       108
    11.4800        90
    11.7000        88
    11.9200        98
    12.1400        88
    12.3600        82
    12.5800        76
    12.8000        86
    13.0200        66
    13.2400        72
    13.4600        74
    13.6800        82
    13.9000        70
    14.1200        90
    14.3400        60
    14.5600        66
    14.7800        72
    15.0000        70
    15.2200        64
    15.4400        76
    15.6600        64
    15.8800        52
    16.1000        72
    16.3200        66
    16.5400        76
    16.7600        54
    16.9800        42
    17.2000        52
    17.4200        34
    17.6400        58
    17.8600        56
    18.0800        60
    18.3000        42
    18.5200        62
    18.7400        78
    18.9600        54
    19.1800        62
    19.4000        48
    19.6200        66
    19.8400        40
    20.0600        50
    20.2800        54
    20.5000        50
    20.7200        56
    20.9400        52
    21.1600        50
    21.3800        62
    21.6000        74
    21.8200        50
    22.0400        40
    22.2600        36
    22.4800        38
    22.7000        54
    22.9200        44
    23.1400        40
    23.3600        40
    23.5800        44
    23.8000        46
    24.0200        44
    24.2400        44
    24.4600        42
    24.6800        40
    24.9000        36
    25.1200        40
    25.3400        32
    25.5600        50
    25.7800        32
    26.0000        34
    26.2200        36
    26.4400        52
    26.6600        50
    26.8800        42
    27.1000        38
    27.3200        28
    27.5400        32
    27.7600        34
    27.9800        40
    28.2000        28
    28.4200        40
    28.6400        36
    28.8600        58
    29.0800        34
    29.3000        40
    29.5200        26
    29.7400        26
    29.9600        42
    30.1800        42
    30.4000        44
    30.6200        50
    30.8400       288
    31.0600        70
    31.2800        34
    31.5000        26
    31.7200        38
    31.9400        24
    32.1600        32
    32.3800        34
    32.6000        42
    32.8200        32
    33.0400        36
    33.2600        22
    33.4800        22
    33.7000        28
    33.9200        28
    34.1400        34
    34.3600        74
    34.5800       532
    34.8000       286
    35.0200        40
    35.2400        28
    35.4600        30
    35.6800        30
    35.9000        24
    36.1200        26
    36.3400        64
    36.5600        42
    36.7800        38
    37.0000        34
    37.2200        28
    37.4400        34
    37.6600        26
    37.8800        48
    38.1000       206
    38.3200        38
    38.5400        36
    38.7600        44
    38.9800        24
    39.2000        38
    39.4200        28
    39.6400       102
    39.8600        88
    40.0800        34
    40.3000        28
    40.5200        26
    40.7400        22
    40.9600        30
    41.1800        22
    41.4000        24
    41.6200        28
    41.8400        30
    42.0600        30
    42.2800        44
    42.5000        20
    42.7200       100
    42.9400        90
    43.1600        26
    43.3800        24
    43.6000        24
    43.8200        24
    44.0400        28
    44.2600        44
    44.4800        40
    44.7000        26
    44.9200        20
    45.1400        24
    45.3600        22
    45.5800        30
    45.8000        20
    46.0200        26
    46.2400        32
    46.4600        22
    46.6800        22
    46.9000        22
    47.1200        30
    47.3400        28
    47.5600        20
    47.7800        24
    48.0000        34
    48.2200        34
    48.4400       238
    48.6600       298
    48.8800        34
    49.1000        24
    49.3200        22
    49.5400        16
    49.7600        20
    49.9800        46
    50.2000        26
    50.4200        32
    50.6400        20
    50.8600        26
    51.0800        22
    51.3000        26
    51.5200        26
    51.7400        20
    51.9600        22
    52.1800        34
    52.4000        22
    52.6200        30
    52.8400        28
    53.0600        24
    53.2800        28
    53.5000        28
    53.7200        32
    53.9400        34
    54.1600        28
    54.3800        26
    54.6000        26
    54.8200        42
    55.0400       558
    55.2600        92
    55.4800        30
    55.7000        24
    55.9200        24
    56.1400        30
    56.3600        38
    56.5800        30
    56.8000        32
    57.0200        34
    57.2400        34
    57.4600       398
    57.6800       204
    57.9000        34
    58.1200        30
    58.3400        40
    58.5600        44
    58.7800        56
    59.0000        26
    59.2200        26
    59.4400        32
    59.6600        56
    59.8800       728
    60.1000       172
    60.3200        32
    60.5400        20
    60.7600        22
    60.9800        26
    61.2000        18
    61.4200        22
    61.6400        24
    61.8600        18
    62.0800        22
    62.3000        34
    62.5200        18
    62.7400        24
    62.9600        28
    63.1800        30
    63.4000        26
    63.6200        22
    63.8400        24
    64.0600        34
    64.2800        32
    64.5000       496
    64.7200       104
    64.9400        34
    65.0000        30