File: sl1/usgs/library06/DESCRIPT/new_xrd_results_to_be_added/Rhonda_Driscoll_xrd_runs/WS483-Grossularite.txt
/////////////////////////////////////////////////////////////////////////////////
/// Profile Data Ascii Dump (XRD)                                             ///
/////////////////////////////////////////////////////////////////////////////////

  Group     : Swayze
  Data      : WS483
  File Name : WS483.RAW

# Profile Datafile
          comment             = Grossularite
          date & time         = 08-04-09 06:49:21

# Measurement Condition
    X-ray tube
          target              = Cu
          voltage             = 40.0 (kV)
          current             = 30.0 (mA)
    Slits
          divergence slit     = 2.00000 (deg)
          scatter slit        = 2.00000 (deg)
          receiving slit      = 0.15000 (mm)
    Scanning
          drive axis          = Theta-2Theta
          scan range          =    4.000 -   65.000
          scan mode           = Continuous Scan
          scan speed          =   2.0000 (deg/min)
          sampling pitch      =   0.0200 (deg)
          preset time         =   0.60 (sec)

# Data      [ Total No. = 3051 ]
  <2Theta>   <   I   >
     4.0000       164
     4.2200       202
     4.4400       182
     4.6600       166
     4.8800       184
     5.1000       164
     5.3200       158
     5.5400       146
     5.7600       158
     5.9800       162
     6.2000       142
     6.4200       152
     6.6400       134
     6.8600       136
     7.0800       112
     7.3000       136
     7.5200       116
     7.7400       122
     7.9600       112
     8.1800        98
     8.4000       130
     8.6200        98
     8.8400       110
     9.0600       116
     9.2800       126
     9.5000       102
     9.7200       110
     9.9400        96
    10.1600       106
    10.3800        98
    10.6000       104
    10.8200        84
    11.0400        76
    11.2600       108
    11.4800        90
    11.7000        70
    11.9200        84
    12.1400        80
    12.3600        74
    12.5800        76
    12.8000        64
    13.0200        70
    13.2400        76
    13.4600        74
    13.6800        64
    13.9000        62
    14.1200        58
    14.3400        50
    14.5600        54
    14.7800        62
    15.0000        66
    15.2200        46
    15.4400        52
    15.6600        50
    15.8800        54
    16.1000        50
    16.3200        54
    16.5400        60
    16.7600        56
    16.9800        48
    17.2000        46
    17.4200        56
    17.6400        54
    17.8600        42
    18.0800        50
    18.3000        68
    18.5200        50
    18.7400        52
    18.9600        52
    19.1800        44
    19.4000        46
    19.6200        46
    19.8400        46
    20.0600        42
    20.2800        40
    20.5000        42
    20.7200        44
    20.9400        46
    21.1600        44
    21.3800        42
    21.6000        30
    21.8200        44
    22.0400        40
    22.2600        34
    22.4800        34
    22.7000        32
    22.9200        42
    23.1400        36
    23.3600        42
    23.5800        40
    23.8000        38
    24.0200        42
    24.2400        30
    24.4600        34
    24.6800        30
    24.9000        34
    25.1200        34
    25.3400        26
    25.5600        36
    25.7800        20
    26.0000        32
    26.2200        28
    26.4400        22
    26.6600        30
    26.8800        38
    27.1000        40
    27.3200        28
    27.5400        32
    27.7600        30
    27.9800        42
    28.2000        30
    28.4200        24
    28.6400        26
    28.8600        28
    29.0800        28
    29.3000        46
    29.5200        40
    29.7400        60
    29.9600       836
    30.1800        72
    30.4000        30
    30.6200        28
    30.8400        22
    31.0600        28
    31.2800        22
    31.5000        30
    31.7200        26
    31.9400        24
    32.1600        30
    32.3800        32
    32.6000        28
    32.8200        40
    33.0400        34
    33.2600        50
    33.4800       428
    33.7000      1536
    33.9200        68
    34.1400        30
    34.3600        34
    34.5800        30
    34.8000        30
    35.0200        40
    35.2400        88
    35.4600       118
    35.6800        22
    35.9000        18
    36.1200        24
    36.3400        18
    36.5600        30
    36.7800       106
    37.0000       520
    37.2200        50
    37.4400        26
    37.6600        30
    37.8800        22
    38.1000        22
    38.3200        44
    38.5400       372
    38.7600        54
    38.9800        26
    39.2000        34
    39.4200        28
    39.6400        20
    39.8600        22
    40.0800        12
    40.3000        36
    40.5200         8
    40.7400        12
    40.9600        20
    41.1800        32
    41.4000        70
    41.6200       322
    41.8400        40
    42.0600        18
    42.2800        22
    42.5000        16
    42.7200        20
    42.9400        96
    43.1600        42
    43.3800        22
    43.6000        18
    43.8200        20
    44.0400        18
    44.2600         8
    44.4800        14
    44.7000        24
    44.9200        26
    45.1400        16
    45.3600        18
    45.5800        14
    45.8000        26
    46.0200        16
    46.2400        20
    46.4600        22
    46.6800        20
    46.9000        60
    47.1200       384
    47.3400        40
    47.5600        20
    47.7800        16
    48.0000        14
    48.2200        26
    48.4400        44
    48.6600        22
    48.8800        26
    49.1000        18
    49.3200        16
    49.5400        20
    49.7600        22
    49.9800        12
    50.2000        16
    50.4200        18
    50.6400        22
    50.8600        14
    51.0800        20
    51.3000        18
    51.5200        22
    51.7400        24
    51.9600        24
    52.1800        16
    52.4000        20
    52.6200        26
    52.8400        18
    53.0600        54
    53.2800       378
    53.5000       368
    53.7200        34
    53.9400        20
    54.1600        38
    54.3800        24
    54.6000        30
    54.8200        28
    55.0400        30
    55.2600        40
    55.4800        80
    55.7000       822
    55.9200       204
    56.1400        36
    56.3600        20
    56.5800        12
    56.8000        32
    57.0200        44
    57.2400        26
    57.4600        40
    57.6800        46
    57.9000       262
    58.1200       526
    58.3400        46
    58.5600        26
    58.7800        22
    59.0000        12
    59.2200        18
    59.4400        20
    59.6600        24
    59.8800        18
    60.1000        20
    60.3200        32
    60.5400        16
    60.7600        24
    60.9800        24
    61.2000        18
    61.4200        26
    61.6400        16
    61.8600        20
    62.0800        20
    62.3000        52
    62.5200        80
    62.7400        34
    62.9600        22
    63.1800        18
    63.4000        34
    63.6200        38
    63.8400        24
    64.0600        16
    64.2800        24
    64.5000        22
    64.7200        14
    64.9400        16
    65.0000        18