File: sl1/usgs/library06/DESCRIPT/new_xrd_results_to_be_added/Rhonda_Driscoll_xrd_runs/WS588-Diopside-Hoefen.txt
/////////////////////////////////////////////////////////////////////////////////
/// Profile Data Ascii Dump (XRD)                                             ///
/////////////////////////////////////////////////////////////////////////////////

  Group     : Swayze
  Data      : WS588
  File Name : WS588.RAW

# Profile Datafile
          comment             = Diopside-Todd
          date & time         = 08-04-15 06:50:20

# Measurement Condition
    X-ray tube
          target              = Cu
          voltage             = 40.0 (kV)
          current             = 30.0 (mA)
    Slits
          divergence slit     = 2.00000 (deg)
          scatter slit        = 2.00000 (deg)
          receiving slit      = 0.15000 (mm)
    Scanning
          drive axis          = Theta-2Theta
          scan range          =    4.000 -   65.000
          scan mode           = Continuous Scan
          scan speed          =   2.0000 (deg/min)
          sampling pitch      =   0.0200 (deg)
          preset time         =   0.60 (sec)

# Data      [ Total No. = 3051 ]
  <2Theta>   <   I   >
     4.0000       188
     4.2200       180
     4.4400       164
     4.6600       156
     4.8800       188
     5.1000       146
     5.3200       156
     5.5400       168
     5.7600       158
     5.9800       146
     6.2000       150
     6.4200       138
     6.6400       144
     6.8600       130
     7.0800       122
     7.3000       120
     7.5200       106
     7.7400       112
     7.9600        92
     8.1800       128
     8.4000       116
     8.6200       114
     8.8400       136
     9.0600       118
     9.2800       110
     9.5000       122
     9.7200       104
     9.9400       108
    10.1600       152
    10.3800       136
    10.6000        96
    10.8200        90
    11.0400       112
    11.2600        78
    11.4800       112
    11.7000       102
    11.9200        82
    12.1400        80
    12.3600        70
    12.5800        66
    12.8000        66
    13.0200        84
    13.2400        90
    13.4600        86
    13.6800        98
    13.9000        62
    14.1200        48
    14.3400        66
    14.5600        58
    14.7800        64
    15.0000        76
    15.2200        78
    15.4400        58
    15.6600        68
    15.8800        50
    16.1000        50
    16.3200        54
    16.5400        66
    16.7600        58
    16.9800        56
    17.2000        50
    17.4200        54
    17.6400        46
    17.8600        50
    18.0800        54
    18.3000        46
    18.5200        76
    18.7400        98
    18.9600        44
    19.1800        50
    19.4000        66
    19.6200        70
    19.8400        72
    20.0600        56
    20.2800        40
    20.5000        50
    20.7200        56
    20.9400        54
    21.1600        54
    21.3800        54
    21.6000        58
    21.8200        44
    22.0400        52
    22.2600        44
    22.4800        48
    22.7000        40
    22.9200        46
    23.1400        38
    23.3600        36
    23.5800        46
    23.8000        50
    24.0200        46
    24.2400        34
    24.4600        36
    24.6800        34
    24.9000        38
    25.1200        56
    25.3400        40
    25.5600        42
    25.7800        36
    26.0000        32
    26.2200        52
    26.4400       126
    26.6600       102
    26.8800        48
    27.1000        76
    27.3200       340
    27.5400       190
    27.7600        54
    27.9800        52
    28.2000        64
    28.4200        74
    28.6400        50
    28.8600        38
    29.0800        54
    29.3000       114
    29.5200       182
    29.7400       944
    29.9600       350
    30.1800       422
    30.4000        66
    30.6200       112
    30.8400       174
    31.0600        52
    31.2800        28
    31.5000        38
    31.7200        34
    31.9400        28
    32.1600        24
    32.3800        34
    32.6000        32
    32.8200        46
    33.0400        50
    33.2600        52
    33.4800        36
    33.7000        32
    33.9200        28
    34.1400        32
    34.3600        42
    34.5800        58
    34.8000       242
    35.0200        66
    35.2400       206
    35.4600       396
    35.6800        74
    35.9000        40
    36.1200        40
    36.3400        38
    36.5600        40
    36.7800        28
    37.0000        22
    37.2200        28
    37.4400        36
    37.6600        38
    37.8800        26
    38.1000        54
    38.3200        66
    38.5400        36
    38.7600        74
    38.9800        60
    39.2000        32
    39.4200        42
    39.6400        24
    39.8600        24
    40.0800        32
    40.3000        44
    40.5200        62
    40.7400        40
    40.9600        34
    41.1800        44
    41.4000        58
    41.6200       182
    41.8400       108
    42.0600       120
    42.2800       212
    42.5000        70
    42.7200       154
    42.9400        40
    43.1600        44
    43.3800        56
    43.6000        32
    43.8200        32
    44.0400        60
    44.2600        68
    44.4800        26
    44.7000        62
    44.9200        80
    45.1400        32
    45.3600        36
    45.5800        24
    45.8000        46
    46.0200        48
    46.2400        46
    46.4600        28
    46.6800        30
    46.9000        24
    47.1200        18
    47.3400        30
    47.5600        32
    47.7800        30
    48.0000        28
    48.2200        28
    48.4400        36
    48.6600        86
    48.8800        30
    49.1000        38
    49.3200       104
    49.5400        66
    49.7600        40
    49.9800        38
    50.2000        36
    50.4200        30
    50.6400        20
    50.8600        22
    51.0800        36
    51.3000        52
    51.5200        30
    51.7400        98
    51.9600       324
    52.1800        40
    52.4000        28
    52.6200        28
    52.8400        30
    53.0600        40
    53.2800        40
    53.5000        30
    53.7200        26
    53.9400        32
    54.1600        36
    54.3800        36
    54.6000        56
    54.8200        48
    55.0400        36
    55.2600        44
    55.4800        34
    55.7000        38
    55.9200        34
    56.1400        60
    56.3600       236
    56.5800       208
    56.8000       130
    57.0200        46
    57.2400        38
    57.4600        64
    57.6800        32
    57.9000        50
    58.1200        28
    58.3400        28
    58.5600        44
    58.7800       172
    59.0000        38
    59.2200        64
    59.4400        78
    59.6600        44
    59.8800        48
    60.1000        38
    60.3200       118
    60.5400       100
    60.7600        52
    60.9800        36
    61.2000        38
    61.4200        84
    61.6400        40
    61.8600        50
    62.0800        64
    62.3000        60
    62.5200        30
    62.7400        26
    62.9600        30
    63.1800        34
    63.4000        30
    63.6200        22
    63.8400        26
    64.0600        52
    64.2800        50
    64.5000        44
    64.7200        42
    64.9400        42
    65.0000        56