File: sl1/usgs/library06/DESCRIPT/new_xrd_results_to_be_added/Rhonda_Driscoll_xrd_runs/WS592-Diopside-Hoefen.txt
/////////////////////////////////////////////////////////////////////////////////
/// Profile Data Ascii Dump (XRD)                                             ///
/////////////////////////////////////////////////////////////////////////////////

  Group     : GPlumlee
  Data      : WS592
  File Name : WS592.RAW

# Profile Datafile
          comment             = Diopside?-Hoefen
          date & time         = 08-04-16 08:46:14

# Measurement Condition
    X-ray tube
          target              = Cu
          voltage             = 40.0 (kV)
          current             = 30.0 (mA)
    Slits
          divergence slit     = 2.00000 (deg)
          scatter slit        = 2.00000 (deg)
          receiving slit      = 0.15000 (mm)
    Scanning
          drive axis          = Theta-2Theta
          scan range          =    4.000 -   65.000
          scan mode           = Continuous Scan
          scan speed          =   2.0000 (deg/min)
          sampling pitch      =   0.0200 (deg)
          preset time         =   0.60 (sec)

# Data      [ Total No. = 3051 ]
  <2Theta>   <   I   >
     4.0000       196
     4.2200       194
     4.4400       168
     4.6600       160
     4.8800       142
     5.1000       158
     5.3200       136
     5.5400       132
     5.7600       158
     5.9800       142
     6.2000       144
     6.4200       124
     6.6400       136
     6.8600       142
     7.0800       108
     7.3000       114
     7.5200       104
     7.7400        92
     7.9600       106
     8.1800        98
     8.4000       104
     8.6200       110
     8.8400       106
     9.0600       108
     9.2800       120
     9.5000        96
     9.7200        92
     9.9400       106
    10.1600       100
    10.3800        86
    10.6000        92
    10.8200        76
    11.0400        92
    11.2600        84
    11.4800        80
    11.7000        72
    11.9200        74
    12.1400        82
    12.3600        70
    12.5800        84
    12.8000        70
    13.0200        52
    13.2400        64
    13.4600        68
    13.6800        82
    13.9000        60
    14.1200        60
    14.3400        56
    14.5600        50
    14.7800        56
    15.0000        44
    15.2200        48
    15.4400        54
    15.6600        56
    15.8800        54
    16.1000        46
    16.3200        58
    16.5400        40
    16.7600        48
    16.9800        66
    17.2000        42
    17.4200        40
    17.6400        34
    17.8600        48
    18.0800        50
    18.3000        54
    18.5200        60
    18.7400        54
    18.9600        58
    19.1800        52
    19.4000        50
    19.6200        60
    19.8400       136
    20.0600        54
    20.2800        42
    20.5000        44
    20.7200        40
    20.9400        36
    21.1600        38
    21.3800        38
    21.6000        42
    21.8200        38
    22.0400        54
    22.2600        34
    22.4800        34
    22.7000        34
    22.9200        46
    23.1400        36
    23.3600        32
    23.5800        38
    23.8000        36
    24.0200        40
    24.2400        50
    24.4600        52
    24.6800        38
    24.9000        46
    25.1200        30
    25.3400        40
    25.5600        46
    25.7800        34
    26.0000        34
    26.2200        42
    26.4400        54
    26.6600        90
    26.8800        40
    27.1000        42
    27.3200        76
    27.5400       578
    27.7600        82
    27.9800        38
    28.2000        34
    28.4200        38
    28.6400        48
    28.8600        44
    29.0800        34
    29.3000        62
    29.5200       192
    29.7400       880
    29.9600       122
    30.1800       374
    30.4000       428
    30.6200       216
    30.8400       250
    31.0600        34
    31.2800        38
    31.5000        60
    31.7200        32
    31.9400        26
    32.1600        32
    32.3800        26
    32.6000        28
    32.8200        38
    33.0400        28
    33.2600        24
    33.4800        32
    33.7000        30
    33.9200        38
    34.1400        34
    34.3600        46
    34.5800        50
    34.8000       172
    35.0200       146
    35.2400        98
    35.4600       210
    35.6800       296
    35.9000       146
    36.1200        46
    36.3400        40
    36.5600        36
    36.7800        26
    37.0000        28
    37.2200        36
    37.4400        30
    37.6600        44
    37.8800        32
    38.1000        32
    38.3200        36
    38.5400        36
    38.7600        24
    38.9800        36
    39.2000       110
    39.4200        78
    39.6400        36
    39.8600        30
    40.0800        36
    40.3000        30
    40.5200        48
    40.7400        92
    40.9600        88
    41.1800        56
    41.4000        32
    41.6200        46
    41.8400       132
    42.0600       196
    42.2800       312
    42.5000        80
    42.7200        90
    42.9400        72
    43.1600        30
    43.3800        44
    43.6000        46
    43.8200        46
    44.0400        26
    44.2600        92
    44.4800       138
    44.7000       130
    44.9200        64
    45.1400        58
    45.3600        80
    45.5800        38
    45.8000        34
    46.0200        58
    46.2400        26
    46.4600        26
    46.6800        26
    46.9000        18
    47.1200        34
    47.3400        26
    47.5600        26
    47.7800        28
    48.0000        30
    48.2200        16
    48.4400        16
    48.6600        12
    48.8800        22
    49.1000        50
    49.3200        36
    49.5400        32
    49.7600       160
    49.9800        82
    50.2000        28
    50.4200        34
    50.6400        36
    50.8600        34
    51.0800        22
    51.3000        28
    51.5200        18
    51.7400        48
    51.9600        44
    52.1800       218
    52.4000        46
    52.6200        30
    52.8400        28
    53.0600        26
    53.2800        24
    53.5000        30
    53.7200        28
    53.9400        24
    54.1600        24
    54.3800        42
    54.6000        38
    54.8200        86
    55.0400        70
    55.2600        34
    55.4800        32
    55.7000        36
    55.9200        34
    56.1400        36
    56.3600       122
    56.5800       400
    56.8000        98
    57.0200       138
    57.2400        64
    57.4600        38
    57.6800        28
    57.9000        28
    58.1200        46
    58.3400        64
    58.5600        26
    58.7800        34
    59.0000        46
    59.2200        66
    59.4400        72
    59.6600       172
    59.8800        86
    60.1000        44
    60.3200        62
    60.5400        46
    60.7600        44
    60.9800        48
    61.2000        60
    61.4200        62
    61.6400        76
    61.8600        36
    62.0800        30
    62.3000        64
    62.5200        64
    62.7400        44
    62.9600        28
    63.1800        36
    63.4000        40
    63.6200        26
    63.8400        30
    64.0600        42
    64.2800        38
    64.5000        26
    64.7200        30
    64.9400        28
    65.0000        38