File: sl1/usgs/library06/DESCRIPT/new_xrd_results_to_be_added/Rhonda_Driscoll_xrd_runs/WS661-Annite-ferrous-biotite.txt
/////////////////////////////////////////////////////////////////////////////////
/// Profile Data Ascii Dump (XRD)                                             ///
/////////////////////////////////////////////////////////////////////////////////

  Group     : Swayze
  Data      : WS661
  File Name : WS661.RAW

# Profile Datafile
          comment             = Annite-ferrous biotite
          date & time         = 08-04-08 08:59:07

# Measurement Condition
    X-ray tube
          target              = Cu
          voltage             = 40.0 (kV)
          current             = 30.0 (mA)
    Slits
          divergence slit     = 2.00000 (deg)
          scatter slit        = 2.00000 (deg)
          receiving slit      = 0.15000 (mm)
    Scanning
          drive axis          = Theta-2Theta
          scan range          =    4.000 -   65.000
          scan mode           = Continuous Scan
          scan speed          =   2.0000 (deg/min)
          sampling pitch      =   0.0200 (deg)
          preset time         =   0.60 (sec)

# Data      [ Total No. = 3051 ]
  <2Theta>   <   I   >
     4.0000       178
     4.2200       174
     4.4400       186
     4.6600       146
     4.8800       160
     5.1000       170
     5.3200       170
     5.5400       150
     5.7600       146
     5.9800       164
     6.2000       136
     6.4200       148
     6.6400       142
     6.8600       122
     7.0800       120
     7.3000       120
     7.5200       126
     7.7400       152
     7.9600       190
     8.1800       262
     8.4000       732
     8.6200      3492
     8.8400      2312
     9.0600       238
     9.2800       138
     9.5000       138
     9.7200       112
     9.9400       118
    10.1600        98
    10.3800        98
    10.6000       110
    10.8200        98
    11.0400        94
    11.2600        94
    11.4800        90
    11.7000        72
    11.9200        60
    12.1400        76
    12.3600        66
    12.5800        78
    12.8000        80
    13.0200        76
    13.2400        82
    13.4600        56
    13.6800        70
    13.9000        60
    14.1200        76
    14.3400        78
    14.5600        68
    14.7800        66
    15.0000        50
    15.2200        76
    15.4400        60
    15.6600        52
    15.8800        64
    16.1000        62
    16.3200        38
    16.5400        54
    16.7600        68
    16.9800        66
    17.2000       108
    17.4200       294
    17.6400      1010
    17.8600        84
    18.0800        52
    18.3000        56
    18.5200        40
    18.7400        40
    18.9600        80
    19.1800        74
    19.4000        40
    19.6200        54
    19.8400        50
    20.0600        62
    20.2800        64
    20.5000        46
    20.7200        52
    20.9400        58
    21.1600        62
    21.3800        62
    21.6000        44
    21.8200        48
    22.0400        46
    22.2600        54
    22.4800        50
    22.7000        62
    22.9200        54
    23.1400        64
    23.3600        42
    23.5800        46
    23.8000        62
    24.0200        66
    24.2400        50
    24.4600        64
    24.6800        66
    24.9000        70
    25.1200        70
    25.3400       104
    25.5600       138
    25.7800       140
    26.0000       202
    26.2200       610
    26.4400      6556
    26.6600      2710
    26.8800       246
    27.1000       128
    27.3200        92
    27.5400        76
    27.7600        66
    27.9800        52
    28.2000        68
    28.4200        74
    28.6400        50
    28.8600        68
    29.0800        44
    29.3000        42
    29.5200        38
    29.7400        44
    29.9600        54
    30.1800        64
    30.4000        68
    30.6200        48
    30.8400        36
    31.0600        38
    31.2800        28
    31.5000        36
    31.7200        50
    31.9400        40
    32.1600        38
    32.3800        40
    32.6000        44
    32.8200        52
    33.0400        48
    33.2600        46
    33.4800        60
    33.7000       118
    33.9200        90
    34.1400        60
    34.3600        50
    34.5800        56
    34.8000        56
    35.0200        50
    35.2400        82
    35.4600       296
    35.6800      2406
    35.9000       126
    36.1200        76
    36.3400        90
    36.5600        80
    36.7800        64
    37.0000        50
    37.2200        38
    37.4400        42
    37.6600        34
    37.8800        40
    38.1000        32
    38.3200        40
    38.5400        26
    38.7600        36
    38.9800        36
    39.2000        40
    39.4200        40
    39.6400        36
    39.8600        50
    40.0800        40
    40.3000        42
    40.5200        30
    40.7400        26
    40.9600        48
    41.1800        62
    41.4000        48
    41.6200        28
    41.8400        36
    42.0600        32
    42.2800        32
    42.5000        32
    42.7200        36
    42.9400        34
    43.1600        32
    43.3800        30
    43.6000        30
    43.8200        32
    44.0400        42
    44.2600        40
    44.4800        40
    44.7000        82
    44.9200       366
    45.1400       450
    45.3600        70
    45.5800        50
    45.8000        34
    46.0200        26
    46.2400        26
    46.4600        38
    46.6800        30
    46.9000        38
    47.1200        44
    47.3400        40
    47.5600        30
    47.7800        34
    48.0000        26
    48.2200        20
    48.4400        38
    48.6600        38
    48.8800        38
    49.1000        42
    49.3200        32
    49.5400        26
    49.7600        34
    49.9800        26
    50.2000        26
    50.4200        34
    50.6400        38
    50.8600        40
    51.0800        22
    51.3000        32
    51.5200        24
    51.7400        30
    51.9600        30
    52.1800        30
    52.4000        40
    52.6200        32
    52.8400        36
    53.0600        40
    53.2800        34
    53.5000        24
    53.7200        48
    53.9400        60
    54.1600        60
    54.3800        90
    54.6000       258
    54.8200       466
    55.0400        68
    55.2600        50
    55.4800        36
    55.7000        36
    55.9200        46
    56.1400        38
    56.3600        32
    56.5800        26
    56.8000        30
    57.0200        30
    57.2400        40
    57.4600        32
    57.6800        30
    57.9000        30
    58.1200        34
    58.3400        26
    58.5600        28
    58.7800        24
    59.0000        40
    59.2200        60
    59.4400        68
    59.6600        68
    59.8800        66
    60.1000        60
    60.3200        34
    60.5400        40
    60.7600        52
    60.9800        34
    61.2000        38
    61.4200        32
    61.6400        40
    61.8600        34
    62.0800        26
    62.3000        38
    62.5200        54
    62.7400        34
    62.9600        28
    63.1800        28
    63.4000        34
    63.6200        36
    63.8400        34
    64.0600        48
    64.2800        38
    64.5000        50
    64.7200       160
    64.9400       328
    65.0000       382