File: sl1/usgs/library06/DESCRIPT/new_xrd_results_to_be_added/Rhonda_Driscoll_xrd_runs/WS708-Bytownite-Hoefen.txt
/////////////////////////////////////////////////////////////////////////////////
/// Profile Data Ascii Dump (XRD)                                             ///
/////////////////////////////////////////////////////////////////////////////////

  Group     : GPlumlee
  Data      : WS708
  File Name : WS708.RAW

# Profile Datafile
          comment             = Bytownite-Hoefen
          date & time         = 08-04-16 08:15:19

# Measurement Condition
    X-ray tube
          target              = Cu
          voltage             = 40.0 (kV)
          current             = 30.0 (mA)
    Slits
          divergence slit     = 2.00000 (deg)
          scatter slit        = 2.00000 (deg)
          receiving slit      = 0.15000 (mm)
    Scanning
          drive axis          = Theta-2Theta
          scan range          =    4.000 -   65.000
          scan mode           = Continuous Scan
          scan speed          =   2.0000 (deg/min)
          sampling pitch      =   0.0200 (deg)
          preset time         =   0.60 (sec)

# Data      [ Total No. = 3051 ]
  <2Theta>   <   I   >
     4.0000       190
     4.2200       170
     4.4400       154
     4.6600       160
     4.8800       140
     5.1000       148
     5.3200       168
     5.5400       150
     5.7600       164
     5.9800       144
     6.2000       138
     6.4200       120
     6.6400       120
     6.8600       142
     7.0800       124
     7.3000       108
     7.5200       100
     7.7400       116
     7.9600       118
     8.1800       108
     8.4000       110
     8.6200       122
     8.8400       118
     9.0600       116
     9.2800       122
     9.5000       110
     9.7200        94
     9.9400        86
    10.1600        84
    10.3800       100
    10.6000       102
    10.8200        96
    11.0400        96
    11.2600        90
    11.4800        82
    11.7000        74
    11.9200        74
    12.1400        96
    12.3600        94
    12.5800        68
    12.8000        90
    13.0200        72
    13.2400        74
    13.4600        92
    13.6800        72
    13.9000        68
    14.1200        74
    14.3400        60
    14.5600        56
    14.7800        66
    15.0000        58
    15.2200        70
    15.4400        62
    15.6600        60
    15.8800        52
    16.1000        58
    16.3200        48
    16.5400        48
    16.7600        60
    16.9800        64
    17.2000        60
    17.4200        54
    17.6400        64
    17.8600        58
    18.0800        50
    18.3000        46
    18.5200        56
    18.7400       124
    18.9600        50
    19.1800        42
    19.4000        44
    19.6200        52
    19.8400        54
    20.0600        48
    20.2800        60
    20.5000        42
    20.7200        46
    20.9400        60
    21.1600        44
    21.3800        64
    21.6000        70
    21.8200       408
    22.0400        88
    22.2600        60
    22.4800        72
    22.7000       152
    22.9200        52
    23.1400        82
    23.3600       160
    23.5800       496
    23.8000        46
    24.0200        70
    24.2400       170
    24.4600       244
    24.6800        54
    24.9000        52
    25.1200        64
    25.3400       104
    25.5600       148
    25.7800        68
    26.0000        64
    26.2200       120
    26.4400       162
    26.6600        66
    26.8800        58
    27.1000        96
    27.3200       362
    27.5400       626
    27.7600      1446
    27.9800      2010
    28.2000       178
    28.4200       212
    28.6400        68
    28.8600        34
    29.0800        66
    29.3000       220
    29.5200        78
    29.7400        42
    29.9600       102
    30.1800       350
    30.4000       208
    30.6200        98
    30.8400        46
    31.0600        44
    31.2800       114
    31.5000       200
    31.7200        96
    31.9400        44
    32.1600        38
    32.3800        42
    32.6000        36
    32.8200        32
    33.0400        30
    33.2600        52
    33.4800        78
    33.7000       210
    33.9200        50
    34.1400        40
    34.3600        36
    34.5800        42
    34.8000        44
    35.0200        64
    35.2400        70
    35.4600       234
    35.6800       180
    35.9000        46
    36.1200        34
    36.3400        58
    36.5600        50
    36.7800        58
    37.0000        58
    37.2200        44
    37.4400        52
    37.6600        68
    37.8800        62
    38.1000        64
    38.3200        38
    38.5400        38
    38.7600        78
    38.9800        44
    39.2000        40
    39.4200        90
    39.6400        84
    39.8600        54
    40.0800        38
    40.3000        80
    40.5200        70
    40.7400        38
    40.9600        34
    41.1800        56
    41.4000        40
    41.6200        56
    41.8400        68
    42.0600       190
    42.2800       150
    42.5000        82
    42.7200        46
    42.9400       138
    43.1600        68
    43.3800        40
    43.6000        38
    43.8200        36
    44.0400        34
    44.2600        38
    44.4800        30
    44.7000        58
    44.9200        70
    45.1400        54
    45.3600        94
    45.5800       106
    45.8000        50
    46.0200        66
    46.2400        52
    46.4600        60
    46.6800        34
    46.9000        56
    47.1200        72
    47.3400        44
    47.5600        38
    47.7800        28
    48.0000        52
    48.2200       164
    48.4400        76
    48.6600        40
    48.8800        56
    49.1000        90
    49.3200       118
    49.5400       220
    49.7600        76
    49.9800        86
    50.2000        90
    50.4200        62
    50.6400       214
    50.8600        72
    51.0800        80
    51.3000       108
    51.5200       152
    51.7400        50
    51.9600       100
    52.1800       108
    52.4000        88
    52.6200        82
    52.8400        74
    53.0600        88
    53.2800       104
    53.5000        86
    53.7200        40
    53.9400        52
    54.1600        58
    54.3800        72
    54.6000        48
    54.8200        56
    55.0400        38
    55.2600        42
    55.4800        62
    55.7000        38
    55.9200        22
    56.1400        42
    56.3600        60
    56.5800        38
    56.8000        38
    57.0200        54
    57.2400        88
    57.4600        78
    57.6800        42
    57.9000        52
    58.1200        62
    58.3400        32
    58.5600        74
    58.7800        88
    59.0000        54
    59.2200        38
    59.4400        44
    59.6600        60
    59.8800        88
    60.1000        58
    60.3200        38
    60.5400        38
    60.7600        60
    60.9800        82
    61.2000        58
    61.4200        30
    61.6400        42
    61.8600        54
    62.0800       112
    62.3000        60
    62.5200        90
    62.7400        92
    62.9600        66
    63.1800        80
    63.4000        48
    63.6200        40
    63.8400        82
    64.0600        82
    64.2800        58
    64.5000        68
    64.7200        46
    64.9400        48
    65.0000        52