File: sl1/usgs/library06/DESCRIPT/new_xrd_results_to_be_added/Rhonda_Driscoll_xrd_runs/WS738---Clinoptilolite.txt
/////////////////////////////////////////////////////////////////////////////////
/// Profile Data Ascii Dump (XRD)                                             ///
/////////////////////////////////////////////////////////////////////////////////

  Group     : Swayze
  Data      : WS738
  File Name : WS738.RAW

# Profile Datafile
          comment             = Clinoptilolite
          date & time         = 08-03-13 05:50:54

# Measurement Condition
    X-ray tube
          target              = Cu
          voltage             = 40.0 (kV)
          current             = 30.0 (mA)
    Slits
          divergence slit     = 2.00000 (deg)
          scatter slit        = 2.00000 (deg)
          receiving slit      = 0.15000 (mm)
    Scanning
          drive axis          = Theta-2Theta
          scan range          =    4.000 -   65.000
          scan mode           = Continuous Scan
          scan speed          =   2.0000 (deg/min)
          sampling pitch      =   0.0200 (deg)
          preset time         =   0.60 (sec)

# Data      [ Total No. = 3051 ]
  <2Theta>   <   I   >
     4.0000       238
     4.2200       178
     4.4400       200
     4.6600       170
     4.8800       184
     5.1000       218
     5.3200       178
     5.5400       172
     5.7600       188
     5.9800       180
     6.2000       164
     6.4200       130
     6.6400       150
     6.8600       130
     7.0800       144
     7.3000       138
     7.5200       142
     7.7400       136
     7.9600       124
     8.1800       114
     8.4000       124
     8.6200       140
     8.8400       154
     9.0600       150
     9.2800       154
     9.5000       240
     9.7200       492
     9.9400       232
    10.1600       126
    10.3800        98
    10.6000       108
    10.8200       164
    11.0400       380
    11.2600       128
    11.4800       106
    11.7000       100
    11.9200        94
    12.1400        98
    12.3600        86
    12.5800        98
    12.8000       132
    13.0200       152
    13.2400       112
    13.4600        72
    13.6800        78
    13.9000        66
    14.1200        86
    14.3400        72
    14.5600        82
    14.7800       116
    15.0000        88
    15.2200        72
    15.4400        88
    15.6600        94
    15.8800        86
    16.1000        74
    16.3200        76
    16.5400        92
    16.7600       120
    16.9800       142
    17.2000       328
    17.4200       118
    17.6400        80
    17.8600        70
    18.0800        90
    18.3000        82
    18.5200        82
    18.7400        76
    18.9600       222
    19.1800        86
    19.4000        84
    19.6200        96
    19.8400        98
    20.0600       102
    20.2800       184
    20.5000       138
    20.7200       110
    20.9400       118
    21.1600       154
    21.3800       196
    21.6000       260
    21.8200       224
    22.0400       332
    22.2600       892
    22.4800       644
    22.7000       502
    22.9200       194
    23.1400       140
    23.3600       102
    23.5800        80
    23.8000       140
    24.0200       118
    24.2400        94
    24.4600        74
    24.6800        84
    24.9000       198
    25.1200       112
    25.3400       116
    25.5600       132
    25.7800       170
    26.0000       390
    26.2200       282
    26.4400       136
    26.6600       230
    26.8800       126
    27.1000        88
    27.3200        78
    27.5400        68
    27.7600       108
    27.9800       258
    28.2000       222
    28.4200       188
    28.6400       216
    28.8600       170
    29.0800       156
    29.3000       120
    29.5200       148
    29.7400       254
    29.9600       454
    30.1800       354
    30.4000       136
    30.6200        66
    30.8400        86
    31.0600        86
    31.2800        80
    31.5000        78
    31.7200       138
    31.9400       418
    32.1600        94
    32.3800        80
    32.6000       152
    32.8200       228
    33.0400        86
    33.2600       112
    33.4800       130
    33.7000        60
    33.9200        64
    34.1400        52
    34.3600        76
    34.5800        84
    34.8000        76
    35.0200       124
    35.2400       104
    35.4600       136
    35.6800       114
    35.9000       116
    36.1200       116
    36.3400        80
    36.5600       134
    36.7800       188
    37.0000       184
    37.2200        88
    37.4400        72
    37.6600        88
    37.8800        68
    38.1000        86
    38.3200        76
    38.5400        56
    38.7600        70
    38.9800        78
    39.2000        66
    39.4200        74
    39.6400        64
    39.8600        66
    40.0800        68
    40.3000        76
    40.5200        66
    40.7400        52
    40.9600        66
    41.1800        78
    41.4000        86
    41.6200        72
    41.8400        62
    42.0600        62
    42.2800        56
    42.5000        86
    42.7200        80
    42.9400        66
    43.1600       116
    43.3800        76
    43.6000        86
    43.8200        62
    44.0400        80
    44.2600        72
    44.4800        68
    44.7000        68
    44.9200       126
    45.1400        56
    45.3600        54
    45.5800        48
    45.8000        64
    46.0200        72
    46.2400       110
    46.4600        78
    46.6800        70
    46.9000        92
    47.1200        78
    47.3400        64
    47.5600        64
    47.7800        62
    48.0000        48
    48.2200        40
    48.4400        50
    48.6600        68
    48.8800        60
    49.1000        70
    49.3200        52
    49.5400        60
    49.7600        64
    49.9800        92
    50.2000        60
    50.4200        58
    50.6400        52
    50.8600        76
    51.0800        74
    51.3000        72
    51.5200        92
    51.7400       102
    51.9600        96
    52.1800        96
    52.4000        84
    52.6200        54
    52.8400        70
    53.0600       100
    53.2800        52
    53.5000        48
    53.7200        60
    53.9400        68
    54.1600       116
    54.3800        88
    54.6000        58
    54.8200        62
    55.0400        68
    55.2600        68
    55.4800        70
    55.7000        78
    55.9200        86
    56.1400        66
    56.3600        64
    56.5800        86
    56.8000        60
    57.0200        88
    57.2400        60
    57.4600        48
    57.6800        60
    57.9000        82
    58.1200        78
    58.3400        62
    58.5600        42
    58.7800        58
    59.0000        70
    59.2200        72
    59.4400        54
    59.6600        60
    59.8800        46
    60.1000        72
    60.3200        54
    60.5400        64
    60.7600        58
    60.9800        68
    61.2000        60
    61.4200        58
    61.6400        52
    61.8600        46
    62.0800        62
    62.3000        74
    62.5200        74
    62.7400        70
    62.9600        72
    63.1800        74
    63.4000        82
    63.6200        66
    63.8400        62
    64.0600        70
    64.2800        88
    64.5000        64
    64.7200        74
    64.9400        92
    65.0000        96