File: sl1/usgs/library06/DESCRIPT/new_xrd_results_to_be_added/Rhonda_Driscoll_xrd_runs/WS741---Heulandite.txt
/////////////////////////////////////////////////////////////////////////////////
/// Profile Data Ascii Dump (XRD)                                             ///
/////////////////////////////////////////////////////////////////////////////////

  Group     : Swayze
  Data      : WS741
  File Name : WS741.RAW

# Profile Datafile
          comment             = Heulandite
          date & time         = 08-03-13 07:23:46

# Measurement Condition
    X-ray tube
          target              = Cu
          voltage             = 40.0 (kV)
          current             = 30.0 (mA)
    Slits
          divergence slit     = 2.00000 (deg)
          scatter slit        = 2.00000 (deg)
          receiving slit      = 0.15000 (mm)
    Scanning
          drive axis          = Theta-2Theta
          scan range          =    4.000 -   65.000
          scan mode           = Continuous Scan
          scan speed          =   2.0000 (deg/min)
          sampling pitch      =   0.0200 (deg)
          preset time         =   0.60 (sec)

# Data      [ Total No. = 3051 ]
  <2Theta>   <   I   >
     4.0000       196
     4.2200       198
     4.4400       164
     4.6600       160
     4.8800       150
     5.1000       160
     5.3200       168
     5.5400       154
     5.7600       174
     5.9800       168
     6.2000       122
     6.4200       146
     6.6400       136
     6.8600       126
     7.0800       130
     7.3000       114
     7.5200       114
     7.7400       126
     7.9600       118
     8.1800       116
     8.4000       126
     8.6200       126
     8.8400       132
     9.0600       140
     9.2800       186
     9.5000       532
     9.7200      3394
     9.9400       478
    10.1600       152
    10.3800        94
    10.6000       114
    10.8200        88
    11.0400       150
    11.2600        98
    11.4800       100
    11.7000        90
    11.9200        84
    12.1400        88
    12.3600        86
    12.5800        88
    12.8000       100
    13.0200        88
    13.2400       112
    13.4600        62
    13.6800        72
    13.9000        88
    14.1200        70
    14.3400        66
    14.5600        54
    14.7800        80
    15.0000        66
    15.2200        64
    15.4400        68
    15.6600        92
    15.8800        56
    16.1000        64
    16.3200        70
    16.5400        90
    16.7600       110
    16.9800        88
    17.2000       126
    17.4200        96
    17.6400        58
    17.8600        58
    18.0800        74
    18.3000        66
    18.5200        56
    18.7400        86
    18.9600       330
    19.1800        56
    19.4000        54
    19.6200        96
    19.8400       140
    20.0600        72
    20.2800        84
    20.5000        68
    20.7200        64
    20.9400        50
    21.1600        60
    21.3800        62
    21.6000        58
    21.8200        80
    22.0400       120
    22.2600       520
    22.4800       236
    22.7000       468
    22.9200        66
    23.1400        88
    23.3600        46
    23.5800        66
    23.8000       108
    24.0200        58
    24.2400        58
    24.4600        64
    24.6800        64
    24.9000        96
    25.1200        64
    25.3400       110
    25.5600       114
    25.7800       184
    26.0000       114
    26.2200        60
    26.4400        60
    26.6600        94
    26.8800        62
    27.1000        44
    27.3200        44
    27.5400        44
    27.7600       136
    27.9800       178
    28.2000        72
    28.4200       242
    28.6400        86
    28.8600       132
    29.0800        62
    29.3000        84
    29.5200       174
    29.7400       586
    29.9600      1282
    30.1800       206
    30.4000        50
    30.6200        56
    30.8400        60
    31.0600        44
    31.2800        40
    31.5000        42
    31.7200       208
    31.9400       176
    32.1600        46
    32.3800        86
    32.6000       228
    32.8200       278
    33.0400        64
    33.2600        40
    33.4800        84
    33.7000        68
    33.9200        38
    34.1400        40
    34.3600        38
    34.5800        54
    34.8000        46
    35.0200        60
    35.2400        96
    35.4600       226
    35.6800       102
    35.9000        76
    36.1200        78
    36.3400       112
    36.5600       110
    36.7800       136
    37.0000       116
    37.2200        62
    37.4400        64
    37.6600        58
    37.8800        80
    38.1000        62
    38.3200        80
    38.5400        58
    38.7600        86
    38.9800       102
    39.2000        62
    39.4200        82
    39.6400        62
    39.8600        56
    40.0800       156
    40.3000       326
    40.5200        58
    40.7400        44
    40.9600        68
    41.1800        46
    41.4000        46
    41.6200        50
    41.8400        84
    42.0600        52
    42.2800        84
    42.5000        92
    42.7200        54
    42.9400        42
    43.1600        92
    43.3800        66
    43.6000        84
    43.8200        56
    44.0400        56
    44.2600        32
    44.4800        50
    44.7000        78
    44.9200        46
    45.1400        46
    45.3600        58
    45.5800        68
    45.8000       164
    46.0200       198
    46.2400       156
    46.4600        72
    46.6800        72
    46.9000        50
    47.1200        66
    47.3400       104
    47.5600        44
    47.7800        36
    48.0000        46
    48.2200        52
    48.4400        42
    48.6600        74
    48.8800        78
    49.1000        46
    49.3200        56
    49.5400        50
    49.7600       100
    49.9800        92
    50.2000        68
    50.4200        62
    50.6400       110
    50.8600       708
    51.0800       516
    51.3000       124
    51.5200       106
    51.7400        86
    51.9600        66
    52.1800        62
    52.4000        78
    52.6200        86
    52.8400       186
    53.0600       150
    53.2800        72
    53.5000        60
    53.7200        44
    53.9400        80
    54.1600        48
    54.3800        46
    54.6000        50
    54.8200        60
    55.0400        52
    55.2600        54
    55.4800        72
    55.7000        90
    55.9200        60
    56.1400        78
    56.3600        70
    56.5800        36
    56.8000        58
    57.0200        38
    57.2400        48
    57.4600        36
    57.6800        64
    57.9000        48
    58.1200        46
    58.3400        40
    58.5600        46
    58.7800        38
    59.0000        66
    59.2200        48
    59.4400        72
    59.6600        48
    59.8800        44
    60.1000        38
    60.3200        44
    60.5400        48
    60.7600        60
    60.9800        46
    61.2000        38
    61.4200        30
    61.6400        42
    61.8600        64
    62.0800       186
    62.3000       214
    62.5200        92
    62.7400        56
    62.9600        54
    63.1800        70
    63.4000        82
    63.6200        98
    63.8400        90
    64.0600        76
    64.2800        66
    64.5000        44
    64.7200        66
    64.9400        58
    65.0000        62