File: sl1/usgs/library06/DESCRIPT/new_xrd_results_to_be_added/Rhonda_Driscoll_xrd_runs/WS749---Stilbite.txt
/////////////////////////////////////////////////////////////////////////////////
/// Profile Data Ascii Dump (XRD)                                             ///
/////////////////////////////////////////////////////////////////////////////////

  Group     : Swayze
  Data      : WS749
  File Name : WS749.RAW

# Profile Datafile
          comment             = Stilbite
          date & time         = 08-03-14 05:53:58

# Measurement Condition
    X-ray tube
          target              = Cu
          voltage             = 40.0 (kV)
          current             = 30.0 (mA)
    Slits
          divergence slit     = 2.00000 (deg)
          scatter slit        = 2.00000 (deg)
          receiving slit      = 0.15000 (mm)
    Scanning
          drive axis          = Theta-2Theta
          scan range          =    4.000 -   65.000
          scan mode           = Continuous Scan
          scan speed          =   2.0000 (deg/min)
          sampling pitch      =   0.0200 (deg)
          preset time         =   0.60 (sec)

# Data      [ Total No. = 3051 ]
  <2Theta>   <   I   >
     4.0000       192
     4.2200       186
     4.4400       194
     4.6600       156
     4.8800       162
     5.1000       200
     5.3200       166
     5.5400       170
     5.7600       174
     5.9800       164
     6.2000       160
     6.4200       144
     6.6400       118
     6.8600       134
     7.0800       126
     7.3000       118
     7.5200       128
     7.7400       112
     7.9600       128
     8.1800       132
     8.4000       128
     8.6200       152
     8.8400       162
     9.0600       168
     9.2800       404
     9.5000      1396
     9.7200      5898
     9.9400       630
    10.1600       134
    10.3800       130
    10.6000       106
    10.8200       104
    11.0400       114
    11.2600       110
    11.4800       106
    11.7000        86
    11.9200       104
    12.1400       102
    12.3600        98
    12.5800        70
    12.8000        80
    13.0200        88
    13.2400        78
    13.4600        76
    13.6800        90
    13.9000        84
    14.1200        66
    14.3400        70
    14.5600        68
    14.7800        84
    15.0000        74
    15.2200        74
    15.4400        66
    15.6600        76
    15.8800        68
    16.1000        76
    16.3200        68
    16.5400       106
    16.7600        76
    16.9800        72
    17.2000        62
    17.4200        42
    17.6400        54
    17.8600        68
    18.0800        64
    18.3000        68
    18.5200        76
    18.7400       104
    18.9600       232
    19.1800       212
    19.4000       746
    19.6200        94
    19.8400       100
    20.0600        70
    20.2800        64
    20.5000        82
    20.7200       140
    20.9400        58
    21.1600        74
    21.3800       112
    21.6000       294
    21.8200      2414
    22.0400       222
    22.2600       130
    22.4800        56
    22.7000        48
    22.9200        48
    23.1400        58
    23.3600        72
    23.5800        68
    23.8000        88
    24.0200        88
    24.2400        56
    24.4600        60
    24.6800        38
    24.9000        56
    25.1200        48
    25.3400        80
    25.5600       130
    25.7800        66
    26.0000       122
    26.2200       254
    26.4400       210
    26.6600        50
    26.8800        46
    27.1000        58
    27.3200        50
    27.5400        58
    27.7600       120
    27.9800       192
    28.2000        90
    28.4200        72
    28.6400       100
    28.8600       100
    29.0800       318
    29.3000      2380
    29.5200       490
    29.7400       244
    29.9600       164
    30.1800       178
    30.4000        56
    30.6200        62
    30.8400        88
    31.0600       190
    31.2800        72
    31.5000        58
    31.7200       126
    31.9400       162
    32.1600       584
    32.3800        68
    32.6000        74
    32.8200       132
    33.0400        48
    33.2600        60
    33.4800        62
    33.7000        66
    33.9200        60
    34.1400        72
    34.3600        78
    34.5800       132
    34.8000       138
    35.0200       162
    35.2400       140
    35.4600       116
    35.6800       256
    35.9000        68
    36.1200        96
    36.3400        98
    36.5600        70
    36.7800        94
    37.0000        54
    37.2200        46
    37.4400        46
    37.6600        44
    37.8800        60
    38.1000       204
    38.3200       138
    38.5400        50
    38.7600        50
    38.9800        68
    39.2000        58
    39.4200        64
    39.6400        56
    39.8600        54
    40.0800        68
    40.3000        90
    40.5200        94
    40.7400        84
    40.9600        56
    41.1800        64
    41.4000        58
    41.6200        80
    41.8400        58
    42.0600        42
    42.2800        60
    42.5000       116
    42.7200        80
    42.9400       128
    43.1600        60
    43.3800        92
    43.6000        90
    43.8200       124
    44.0400        80
    44.2600        66
    44.4800       182
    44.7000       106
    44.9200        46
    45.1400        56
    45.3600        98
    45.5800        52
    45.8000        66
    46.0200        36
    46.2400        38
    46.4600        50
    46.6800        54
    46.9000        52
    47.1200        44
    47.3400        48
    47.5600        72
    47.7800       174
    48.0000        76
    48.2200        56
    48.4400        96
    48.6600        66
    48.8800        58
    49.1000        56
    49.3200       116
    49.5400       162
    49.7600      1310
    49.9800      1130
    50.2000       122
    50.4200       116
    50.6400        60
    50.8600       122
    51.0800       100
    51.3000       156
    51.5200        78
    51.7400        40
    51.9600        44
    52.1800        62
    52.4000        50
    52.6200        68
    52.8400       142
    53.0600        72
    53.2800        50
    53.5000        62
    53.7200        38
    53.9400        58
    54.1600        52
    54.3800        56
    54.6000        64
    54.8200        68
    55.0400        38
    55.2600        52
    55.4800        54
    55.7000        66
    55.9200       100
    56.1400        68
    56.3600        40
    56.5800        62
    56.8000        40
    57.0200        64
    57.2400        56
    57.4600        62
    57.6800       128
    57.9000       148
    58.1200       108
    58.3400        76
    58.5600        68
    58.7800        56
    59.0000        84
    59.2200       122
    59.4400       154
    59.6600        90
    59.8800        68
    60.1000        38
    60.3200        52
    60.5400        50
    60.7600        96
    60.9800        58
    61.2000        54
    61.4200        46
    61.6400        50
    61.8600        88
    62.0800        76
    62.3000        52
    62.5200        60
    62.7400        54
    62.9600        46
    63.1800        58
    63.4000        76
    63.6200        36
    63.8400        58
    64.0600        36
    64.2800        36
    64.5000       102
    64.7200       124
    64.9400        72
    65.0000        72