File: sl1/usgs/library06/DESCRIPT/new_xrd_results_to_be_added/Rhonda_Driscoll_xrd_runs/WS747---Scolecite.txt
/////////////////////////////////////////////////////////////////////////////////
/// Profile Data Ascii Dump (XRD)                                             ///
/////////////////////////////////////////////////////////////////////////////////

  Group     : Swayze
  Data      : WS747
  File Name : WS747.RAW

# Profile Datafile
          comment             = Scolecite
          date & time         = 08-03-13 07:54:41

# Measurement Condition
    X-ray tube
          target              = Cu
          voltage             = 40.0 (kV)
          current             = 30.0 (mA)
    Slits
          divergence slit     = 2.00000 (deg)
          scatter slit        = 2.00000 (deg)
          receiving slit      = 0.15000 (mm)
    Scanning
          drive axis          = Theta-2Theta
          scan range          =    4.000 -   65.000
          scan mode           = Continuous Scan
          scan speed          =   2.0000 (deg/min)
          sampling pitch      =   0.0200 (deg)
          preset time         =   0.60 (sec)

# Data      [ Total No. = 3051 ]
  <2Theta>   <   I   >
     4.0000       206
     4.2200       192
     4.4400       178
     4.6600       130
     4.8800       172
     5.1000       156
     5.3200       146
     5.5400       142
     5.7600       152
     5.9800       156
     6.2000       160
     6.4200       148
     6.6400       130
     6.8600       120
     7.0800       114
     7.3000        90
     7.5200       100
     7.7400       124
     7.9600       106
     8.1800       124
     8.4000       124
     8.6200       106
     8.8400       136
     9.0600       190
     9.2800       406
     9.5000      1682
     9.7200      1066
     9.9400       184
    10.1600       100
    10.3800        96
    10.6000        84
    10.8200        90
    11.0400        90
    11.2600        92
    11.4800        74
    11.7000        90
    11.9200        70
    12.1400        82
    12.3600        92
    12.5800        84
    12.8000        84
    13.0200       108
    13.2400       266
    13.4600        80
    13.6800        88
    13.9000        56
    14.1200        80
    14.3400        62
    14.5600        72
    14.7800        76
    15.0000       112
    15.2200        74
    15.4400        52
    15.6600        58
    15.8800        64
    16.1000        80
    16.3200       102
    16.5400       136
    16.7600        70
    16.9800        70
    17.2000        56
    17.4200        46
    17.6400        52
    17.8600        52
    18.0800        80
    18.3000        64
    18.5200       218
    18.7400       168
    18.9600       488
    19.1800       158
    19.4000       326
    19.6200        84
    19.8400       118
    20.0600       130
    20.2800        74
    20.5000       104
    20.7200       474
    20.9400       222
    21.1600       114
    21.3800       108
    21.6000       424
    21.8200      1252
    22.0400       258
    22.2600        78
    22.4800        60
    22.7000        56
    22.9200        48
    23.1400        60
    23.3600        58
    23.5800        94
    23.8000       102
    24.0200        56
    24.2400        60
    24.4600        52
    24.6800        46
    24.9000        50
    25.1200        56
    25.3400       116
    25.5600        78
    25.7800        78
    26.0000       158
    26.2200       236
    26.4400        64
    26.6600        82
    26.8800        60
    27.1000        46
    27.3200        52
    27.5400        80
    27.7600       196
    27.9800       290
    28.2000        86
    28.4200        72
    28.6400       142
    28.8600       108
    29.0800       410
    29.3000      1558
    29.5200       304
    29.7400       252
    29.9600       116
    30.1800        64
    30.4000       158
    30.6200       140
    30.8400       244
    31.0600       166
    31.2800       120
    31.5000        98
    31.7200       100
    31.9400       122
    32.1600       386
    32.3800        56
    32.6000        54
    32.8200        94
    33.0400        80
    33.2600        58
    33.4800        48
    33.7000        60
    33.9200        52
    34.1400        90
    34.3600       106
    34.5800       144
    34.8000       156
    35.0200       104
    35.2400        98
    35.4600        82
    35.6800       104
    35.9000       114
    36.1200        98
    36.3400        86
    36.5600        74
    36.7800        62
    37.0000        48
    37.2200        36
    37.4400        50
    37.6600        54
    37.8800        60
    38.1000       118
    38.3200        56
    38.5400        58
    38.7600        70
    38.9800        64
    39.2000        56
    39.4200        52
    39.6400        80
    39.8600        58
    40.0800        76
    40.3000        50
    40.5200        86
    40.7400       294
    40.9600        96
    41.1800        44
    41.4000        70
    41.6200       100
    41.8400        54
    42.0600        50
    42.2800        54
    42.5000        66
    42.7200        72
    42.9400        90
    43.1600        46
    43.3800       244
    43.6000       102
    43.8200       108
    44.0400        90
    44.2600       120
    44.4800       118
    44.7000        76
    44.9200        42
    45.1400        56
    45.3600        60
    45.5800        50
    45.8000        38
    46.0200        46
    46.2400        50
    46.4600        54
    46.6800        52
    46.9000        38
    47.1200        32
    47.3400        46
    47.5600        72
    47.7800       120
    48.0000        74
    48.2200        56
    48.4400        60
    48.6600        90
    48.8800        96
    49.1000        84
    49.3200        60
    49.5400       114
    49.7600       494
    49.9800       614
    50.2000       170
    50.4200       100
    50.6400        74
    50.8600        70
    51.0800        94
    51.3000        84
    51.5200        64
    51.7400        42
    51.9600        72
    52.1800        68
    52.4000        64
    52.6200        90
    52.8400       100
    53.0600        58
    53.2800        42
    53.5000        34
    53.7200        54
    53.9400        54
    54.1600        72
    54.3800        46
    54.6000        44
    54.8200        70
    55.0400        74
    55.2600        64
    55.4800        38
    55.7000        58
    55.9200       130
    56.1400        68
    56.3600        46
    56.5800        64
    56.8000        72
    57.0200        72
    57.2400        70
    57.4600        58
    57.6800       134
    57.9000       158
    58.1200       112
    58.3400        62
    58.5600        52
    58.7800        88
    59.0000        56
    59.2200       110
    59.4400       122
    59.6600        36
    59.8800        48
    60.1000        28
    60.3200        44
    60.5400        24
    60.7600        60
    60.9800        66
    61.2000        38
    61.4200        46
    61.6400        50
    61.8600        78
    62.0800        42
    62.3000        42
    62.5200        46
    62.7400        44
    62.9600        60
    63.1800        54
    63.4000        56
    63.6200        46
    63.8400        50
    64.0600        36
    64.2800        70
    64.5000        56
    64.7200        72
    64.9400        50
    65.0000        46